LabVIEW Measurement	
Writer_Version	2
Reader_Version	2
Separator	Tab
Decimal_Separator	.
Multi_Headings	No
X_Columns	No
Time_Pref	Absolute
Operator	lvuser
Date	2021/05/25
Time	17:02:36.692671712
***End_of_Header***	
	
Channels	5					
Samples	2000	2000	2000	2000	2000	
Date	2021/05/25	2021/05/25	2021/05/25	2021/05/25	2021/05/25	
Time	17:02:36.6926717620585883855	17:02:36.692671712	17:02:36.692671712	17:02:36.692671712	17:02:36.692671712	
Y_Unit_Label	Volts	Volts	Volts	Volts	Volts	
X_Dimension	Time	Time	Time	Time	Time	
X0	0.0000000000000000E+0	0.0000000000000000E+0	0.0000000000000000E+0	0.0000000000000000E+0	0.0000000000000000E+0	
Delta_X	0.001000	0.001000	0.001000	0.001000	0.001000	
***End_of_Header***						
X_Value	cisnienieKomoraGorna	sila1	sila2	sila3	sila1 1	Comment
	7.338172	-2.883425	40.061292	4.943374	42.121240	Masa: 0.00 [kg]\09Pozycja Y 5.00 [m]\09Pozycja Z 2.71 [m]\0A
	7.535197	-3.679858	38.797264	1.915961	37.033367
	7.387429	-0.812701	41.957334	6.218074	47.362707
	7.362801	-4.157717	38.955267	2.553311	37.350861
	7.165776	-1.768420	41.799330	3.987349	44.018259
	7.559826	-1.768420	40.377299	5.580724	44.189603
	7.313544	-2.564852	41.167316	3.668674	42.271138
	7.781479	-3.998431	38.481257	1.915961	36.398787
	7.338172	-2.883425	39.429278	0.481924	37.027776
	7.510569	-3.361285	40.377299	3.509336	40.525350
	7.338172	-2.405565	41.641327	5.262049	44.497810
	7.535197	-2.086993	39.429278	3.031324	40.373609
	7.362801	-2.086993	42.589348	4.146686	44.649041
	7.535197	-4.157717	38.955267	1.597286	36.394836
	6.944122	-2.405565	41.641327	3.509336	42.745097
	7.190404	-3.839144	42.115337	3.509336	41.785529
	7.042635	-3.042711	41.009313	3.509336	41.475937
	6.747097	-3.998431	42.589348	2.393974	40.984891
	6.894866	-3.361285	41.483323	2.712649	40.834687
	7.288916	-4.635576	39.429278	2.075299	36.869000
	6.845610	-2.724139	41.641327	5.102711	44.019899
	7.165776	-0.494128	40.693306	3.509336	43.708514
	6.845610	-3.361285	39.587281	2.553311	38.779308
	7.091891	-3.201998	40.851309	1.756624	39.405935
	6.894866	-3.361285	39.271274	2.393974	38.303963
	6.968750	-7.662020	38.007246	2.393974	32.739200
	6.747097	-2.564852	43.379365	4.146686	44.961199
	7.042635	-3.042711	42.747351	3.987349	43.691988
	6.894866	-3.679858	44.327386	1.915961	42.563490
	7.067263	-4.635576	39.587281	1.756624	36.708328
	6.599328	-3.679858	41.483323	5.899399	43.702864
	6.845610	-2.405565	40.535302	2.871986	41.001723
	6.550072	-2.883425	40.219295	3.031324	40.367194
	6.697841	-2.883425	40.693306	2.393974	40.203854
	6.599328	-3.361285	39.587281	1.915961	38.141958
	6.796354	-5.113436	37.849243	4.465361	37.201168
	6.402303	-0.812701	42.747351	5.262049	47.196699
	7.165776	-1.927706	43.695372	5.580724	47.348390
	6.106766	-3.042711	41.167316	3.190661	41.315266
	6.574700	-3.201998	43.853376	2.393974	43.045351
	5.958997	-1.768420	42.273341	5.580724	46.085645
	6.451560	-1.290560	41.483323	3.190661	43.383424
	6.032881	-4.317003	40.377299	3.828011	39.888306
	6.353047	-4.794863	38.797264	1.915961	35.918362
	6.156022	-5.272723	38.639260	2.234636	35.601174
	6.303791	-4.794863	39.903288	1.756624	36.865049
	6.008253	-4.317003	38.323253	1.278611	35.284861
	6.451560	-4.157717	40.219295	3.668674	39.730252
	6.032881	-1.768420	41.957334	3.349999	43.538913
	6.525444	-4.476290	40.219295	2.871986	38.614991
	6.032881	-2.883425	39.587281	3.349999	40.053855
	6.156022	-3.520571	40.061292	2.234636	38.775357
	5.712716	-4.476290	39.271274	0.800599	35.595583
	6.180650	-4.476290	37.691239	1.119274	34.334223
	5.786600	-2.724139	41.009313	6.218074	44.503248
	6.377675	2.532316	44.327386	5.740061	52.599763
	5.934369	-7.980593	36.427211	-0.792777	27.653842
	6.082138	-5.909868	40.535302	-0.155427	34.470007
	5.737344	-6.069155	39.745285	1.597286	35.273415
	6.353047	-5.113436	39.903288	3.668674	38.458526
	5.712716	-4.157717	39.113271	2.393974	37.349527
	5.835856	-4.476290	38.797264	2.712649	37.033622
	5.614203	-0.175555	41.009313	5.102711	45.936469
	6.008253	-3.679858	39.903288	1.597286	37.820717
	5.392550	-2.883425	38.797264	2.393974	38.307812
	5.835856	-2.564852	39.587281	2.712649	39.735078
	5.540319	-3.839144	41.957334	5.102711	43.220901
	6.254535	-3.042711	40.535302	3.031324	40.523914
	5.294037	-4.635576	41.325320	1.119274	37.809017
	5.909741	-2.564852	40.693306	2.712649	40.841102
	5.244781	-4.954149	38.323253	1.278611	34.647715
	5.909741	-1.290560	41.483323	5.899399	46.092162
	5.491063	-0.175555	40.851309	3.668674	44.344428
	5.934369	-4.157717	39.113271	3.987349	38.942902
	5.318666	-5.272723	38.639260	1.119274	34.485811
	5.811228	-3.839144	42.747351	1.756624	40.664831
	5.392550	-1.927706	41.009313	2.234636	41.316243
	5.761972	-3.201998	40.377299	2.712649	39.887949
	5.466434	-3.201998	39.903288	4.784036	41.485326
	5.761972	-2.086993	40.377299	3.349999	41.640305
	5.220153	-5.113436	37.375232	3.190661	35.452457
	5.712716	-2.405565	40.535302	3.349999	41.479735
	5.220153	-3.520571	39.745285	1.756624	37.981337
	5.811228	-1.290560	40.535302	1.597286	40.842028
	5.318666	-4.157717	41.009313	1.915961	38.767557
	5.786600	-2.246279	41.325320	5.102711	44.181752
	5.441806	-4.157717	38.323253	2.712649	36.878185
	5.761972	-5.909868	38.165250	0.800599	33.055979
	5.121641	-3.998431	39.271274	2.075299	37.348142
	5.663459	-0.971987	42.115337	5.262049	46.405399
	5.121641	-2.724139	40.219295	3.987349	41.482505
	5.786600	-3.998431	38.955267	1.915961	36.872798
	5.146269	-1.768420	41.799330	4.306024	44.336934
	5.663459	0.461591	43.379365	4.624699	48.465655
	5.023128	-3.520571	41.009313	2.553311	40.042053
	5.638831	-2.564852	41.167316	1.597286	40.199750
	5.318666	-3.520571	40.535302	2.712649	39.727380
	5.638831	-2.883425	40.061292	4.784036	41.961903
	5.244781	-2.086993	39.271274	3.509336	40.693618
	5.712716	-3.201998	39.903288	1.756624	38.457914
	5.417178	-0.175555	38.639260	3.031324	41.495029
	5.835856	-5.272723	39.113271	0.800599	34.641147
	5.515691	-0.971987	43.695372	5.740061	48.463446
	5.712716	-2.246279	42.747351	4.943374	45.444446
	5.540319	-3.520571	39.587281	3.987349	40.054059
	5.515691	-4.954149	38.165250	0.800599	34.011699
	5.663459	-3.520571	40.061292	1.756624	38.297344
	5.688088	-2.246279	38.955267	1.437949	38.146937
	5.491063	-3.042711	41.325320	3.349999	41.632607
	5.712716	-2.564852	41.957334	4.306024	43.698505
	5.466434	-3.201998	41.009313	3.190661	40.997976
	5.614203	-2.405565	43.853376	4.146686	45.594496
	5.146269	-1.768420	41.799330	4.465361	44.496272
	5.392550	-3.201998	39.903288	1.915961	38.617251
	5.244781	-2.246279	39.903288	1.756624	39.413633
	5.515691	-2.086993	42.905355	4.943374	45.761736
	5.343294	-2.883425	39.745285	5.580724	42.442583
	5.441806	-3.998431	41.167316	3.031324	40.200209
	5.417178	-3.679858	39.745285	2.871986	38.937413
	5.417178	-1.768420	41.957334	3.509336	43.698250
	5.515691	-2.246279	42.589348	3.349999	43.693067
	5.417178	-0.334841	41.483323	4.784036	45.932518
	5.663459	-4.794863	38.797264	2.393974	36.396374
	5.589575	-1.768420	41.799330	5.421386	45.452297
	5.983625	-3.361285	40.219295	2.553311	39.411322
	6.353047	-1.609133	41.325320	3.509336	43.225523
	7.658338	-3.998431	39.271274	0.163249	35.436092
	8.618835	-0.812701	43.695372	4.465361	47.348033
	10.170408	2.373029	43.695372	7.014761	53.083163
	11.574211	-1.609133	44.485390	3.828011	46.704268
	12.978015	0.939451	44.011379	4.624699	49.575529
	13.544462	-1.290560	42.273341	3.031324	44.014104
	14.775869	-1.131274	42.747351	3.828011	45.444089
	15.465456	2.213743	43.853376	5.580724	51.647842
	15.810250	0.620878	40.693306	3.668674	44.982857
	16.228928	2.691602	43.853376	6.536749	53.081727
	18.076039	1.735883	43.063358	4.624699	49.423940
	19.455214	2.532316	44.327386	3.349999	50.209701
	22.459847	1.895170	44.485390	2.871986	49.252546
	24.479354	5.877333	47.013446	5.580724	58.471502
	27.336218	7.310911	46.697439	5.899399	59.907748
	29.257212	9.859495	48.435477	7.652111	65.947083
	31.621513	14.319517	50.015512	10.042174	74.377203
	33.197714	13.523085	51.437544	9.564161	74.524789
	35.340362	17.664534	55.229628	10.201511	83.095672
	36.694910	17.505247	57.125670	10.042174	84.673090
	38.886814	20.213117	56.493656	10.042174	86.748947
	39.256237	26.425291	62.971799	15.459649	104.856739
	42.384010	29.770307	64.235827	14.981636	108.987771
	44.994593	35.982481	67.395897	16.893686	120.272064
	48.639558	38.371778	70.871974	18.646399	127.890151
	50.856091	43.309660	75.138069	20.717786	139.165515
	55.018248	51.114699	79.720170	25.338573	156.173442
	57.259409	54.459715	84.618279	26.931949	166.009942
	61.520079	66.087630	93.150468	34.580149	193.818246
	63.638099	71.184798	99.470607	36.332861	206.988266
	67.923397	80.423414	107.528786	40.156961	228.109161
	70.336956	87.909880	113.532919	44.140399	245.583198
	74.302089	96.670637	120.959084	50.673236	268.302957
	74.154320	109.094985	129.965283	59.596136	298.656404
	77.257467	115.625731	138.971483	62.942224	317.539437
	80.311358	127.094359	147.977682	69.315723	344.387765
	82.330867	136.492263	158.405913	74.733199	369.631374
	84.842939	147.642318	168.518137	81.106699	397.267153
	85.828065	154.810210	175.312288	83.974773	414.097271
	87.872202	165.800979	188.110571	91.622974	445.534523
	89.103610	175.995315	194.588715	99.589849	470.173878
	90.433531	182.685348	202.646893	102.617261	487.949501
	92.920975	191.923965	211.179082	106.760036	509.863083
	93.758333	198.454711	217.973233	110.902811	527.330755
	95.654701	206.737609	223.977366	114.726911	545.441886
	96.516687	211.675490	230.929520	118.072999	560.678009
	96.516687	217.250518	237.407663	120.941074	575.599255
	98.610081	224.736984	245.307838	128.111261	598.156083
	98.216030	229.993438	252.417996	130.979336	613.390770
	99.742976	238.913482	258.264125	135.600124	632.777731
	98.954875	237.798476	257.316104	133.528736	628.643317
	99.890745	245.284942	263.794248	138.627536	647.706726
	98.954875	254.045700	272.484440	147.869111	674.399251
	98.757850	256.594284	274.538486	147.550436	678.683205
	98.019005	260.417159	277.698556	148.347124	686.462839
	97.526442	262.328598	279.910605	151.374536	693.613738
	96.467431	268.859344	287.336769	155.357974	711.554087
	96.048752	271.248642	290.338836	159.182074	720.769551
	94.989741	274.115798	293.498906	160.456774	728.071478
	94.891228	277.779388	296.342969	164.280874	738.403230
	92.674694	282.398696	300.451060	166.670936	749.520692
	91.763452	285.265853	300.451060	166.352261	752.069174
	88.537163	285.584427	302.663109	167.148949	755.396484
	86.788563	287.177291	305.033161	169.220336	761.430789
	84.448888	287.655151	302.505105	169.698349	759.858605
	81.789047	287.336578	305.823179	170.017024	763.176780
	78.907553	288.610870	307.403214	169.220336	765.234420
	76.075316	286.540145	305.665175	168.901661	761.106982
	73.587872	286.062286	307.087207	167.626961	760.776454
	71.297454	282.717269	301.557084	165.874249	750.148602
	67.874141	279.850113	298.871025	164.280874	743.002011
	68.366704	277.142242	295.552951	163.643524	736.338717
	64.820250	271.407928	292.550885	159.022736	722.981549
	62.357436	265.832901	285.282724	154.083274	705.198898
	59.278917	262.328598	284.492706	153.764599	700.585902
	56.791474	258.665008	279.752601	150.259174	688.676783
	52.653946	252.134262	275.170500	149.143811	676.448572
	50.535926	244.010650	267.586332	143.088986	654.685968
	47.334267	238.117050	262.372216	142.610974	643.100239
	45.019222	228.878433	253.998031	135.122111	617.998574
	41.275744	223.621978	247.993898	130.660661	602.276537
	38.960699	215.657653	242.463775	126.836561	584.957989
	35.635900	208.649047	233.457576	122.853124	564.959746
	34.576890	199.729003	226.979432	119.985049	546.693483
	33.443996	194.791122	223.977366	116.160949	534.929436
	30.907297	186.348937	214.339152	109.150098	509.838188
	28.838534	177.269607	210.389065	105.325998	492.984669
	26.400348	169.942427	199.960834	103.254611	473.157872
	23.321831	164.685973	196.010746	101.342561	462.039280
	21.721002	157.040221	188.742585	96.084423	441.867230
	18.667114	147.642318	178.946368	89.392249	415.980934
	17.214054	139.518706	170.730186	84.293449	394.542341
	14.455703	136.332976	166.938102	81.584711	384.855789
	13.569090	124.227202	157.299889	74.733199	356.260289
	11.598839	118.015029	152.401780	72.183799	342.600607
	10.786111	109.094985	147.977682	71.705786	328.778453
	9.776358	101.608519	139.287490	63.738911	304.634920
	9.259167	97.785643	132.651343	61.189511	291.626497
	7.338172	90.458464	126.647210	56.250049	273.355722
	6.796354	86.794875	122.381115	53.541311	262.717301
	5.220153	78.830550	116.060975	50.832574	245.724098
	4.776847	73.096236	111.478874	47.167811	231.742920
	3.767093	67.043349	108.160800	47.327149	222.531297
	3.299159	61.627607	101.366650	41.431661	204.425918
	2.018496	57.804731	99.312604	38.722924	195.840259
	2.437174	51.911131	92.834461	35.536174	180.281765
	1.673702	50.955412	88.410363	33.305449	172.671223
	2.215521	43.468946	85.724303	32.508761	161.702011
	1.328908	40.601790	82.880240	30.437373	153.919403
	2.043124	34.708189	78.772149	29.003336	142.483674
	1.304280	32.000318	75.770083	25.816586	133.586987
	1.821471	30.248167	74.348051	23.904536	128.500754
	1.082627	26.743864	71.661992	21.514474	119.920329
	1.993868	25.469572	69.923953	21.992486	117.386011
	1.378165	21.168837	66.605880	23.107848	110.882565
	2.190893	20.372404	64.235827	20.399111	105.007342
	1.698330	15.753096	59.495722	15.140974	90.389791
	2.166265	12.726652	58.547701	14.662961	85.937314
	1.821471	10.974500	55.703638	13.228924	79.907062
	2.314034	9.540922	55.387631	14.503624	79.432177
	1.722958	11.611647	56.651659	14.822299	83.085604
	2.387918	6.514479	52.701572	12.272899	71.488949
	1.649074	3.965895	53.175582	9.086149	66.227625
	2.511059	6.514479	51.121537	8.926811	66.562826
	1.649074	4.443754	51.911554	10.042174	66.397481
	2.215521	5.080900	50.489523	10.042174	65.612596
	1.599818	1.417310	46.697439	9.404824	57.519573
	2.190893	3.169462	45.433411	7.970786	56.573659
	1.624446	1.735883	46.381432	7.014761	55.132076
	2.264777	2.213743	46.065425	7.333436	55.612604
	1.698330	0.939451	44.011379	4.624699	49.575529
	2.437174	-0.971987	44.643393	3.509336	47.180742
	1.722958	0.302305	43.537369	4.784036	48.623710
	2.363290	-1.927706	40.693306	5.899399	44.664998
	1.427421	2.054456	41.325320	4.465361	47.845137
	1.993868	-1.609133	41.167316	3.031324	42.589507
	1.378165	-0.812701	40.219295	3.668674	43.075268
	2.067752	-3.520571	40.377299	1.756624	38.613351
	1.501305	-3.998431	40.693306	0.641261	37.336136
	1.870727	-2.883425	38.797264	1.119274	37.033112
	1.378165	-2.405565	41.325320	3.668674	42.588428
	2.363290	-1.131274	38.797264	1.597286	39.263276
	1.870727	-2.724139	38.165250	-0.155427	35.285685
	2.683456	-1.768420	38.639260	0.481924	37.352764
	1.772215	-2.405565	37.375232	-0.633439	34.336228
	3.126762	-3.839144	36.269208	2.075299	34.505362
	2.166265	-3.679858	36.901222	-0.155427	33.065938
	2.806596	-4.157717	36.111204	-0.952114	31.001373
	1.993868	-4.476290	36.269208	-1.430127	30.362791
	2.412546	-3.042711	39.429278	0.481924	36.868490
	2.314034	-4.317003	36.901222	0.481924	33.066142
	3.003621	0.302305	37.217229	0.641261	38.160795
	2.412546	-3.839144	37.375232	0.959936	34.496024
	3.249903	-4.476290	35.637194	-0.633439	30.527465
	3.052878	-5.113436	37.059225	-0.155427	31.790363
	3.274531	-3.520571	38.165250	-0.633439	34.011239
	2.732712	-2.564852	38.323253	0.322586	36.080987
	3.299159	-2.086993	38.797264	3.987349	40.697620
	2.855852	-0.971987	41.325320	1.278611	41.631944
	3.200646	-3.201998	38.007246	1.437949	36.243197
	2.757340	-2.246279	38.323253	1.756624	37.833598
	2.978993	-1.609133	39.429278	1.756624	39.576768
	2.954365	-1.609133	39.113271	0.641261	38.145399
	3.274531	-2.246279	37.375232	1.278611	36.407564
	2.781968	-1.768420	39.903288	3.668674	41.803542
	3.373043	-0.971987	40.061292	1.756624	40.845928
	2.905109	-4.476290	38.323253	0.481924	34.328887
	2.954365	-1.131274	39.903288	1.437949	40.209963
	3.077506	-1.290560	40.851309	2.712649	42.273398
	3.619325	-1.131274	39.271274	0.641261	38.781262
	3.225274	-0.175555	40.061292	3.509336	43.395073
	2.806596	-1.609133	40.219295	3.509336	42.119498
	2.609571	-0.175555	38.797264	2.393974	41.015683
	3.077506	-1.131274	41.641327	2.393974	42.904027
	2.880481	-0.971987	42.905355	1.278611	43.211979
	3.102134	-1.290560	41.167316	2.234636	42.111392
	3.126762	-2.246279	44.327386	4.784036	46.865143
	2.905109	-1.131274	41.009313	3.031324	42.909363
	2.855852	-0.494128	42.115337	2.712649	44.333858
	2.978993	1.258024	41.325320	3.509336	46.092680
	2.954365	-3.361285	39.271274	0.959936	36.869926
	2.757340	-1.131274	39.587281	4.624699	43.080706
	3.052878	-2.246279	41.799330	3.987349	43.540400
	2.954365	-2.564852	40.535302	4.306024	42.276474
	2.732712	-3.839144	39.587281	1.119274	36.867411
	2.683456	-0.653414	44.011379	3.509336	46.867301
	2.855852	-1.131274	41.483323	1.915961	42.268011
	2.486431	-1.768420	41.009313	3.987349	43.228242
	2.708084	-1.290560	42.431344	5.899399	47.040183
	2.289405	-1.290560	42.431344	4.306024	45.446808
	2.683456	-3.042711	40.061292	3.349999	40.368578
	2.363290	-0.971987	41.799330	3.828011	44.655354
	2.658827	-2.246279	43.221362	3.031324	44.006406
	2.412546	1.417310	42.273341	2.393974	46.084625
	2.683456	-3.042711	43.063358	3.509336	43.529983
	2.387918	-1.131274	42.431344	6.536749	47.836819
	2.584943	-4.794863	41.167316	3.190661	39.563114
	1.969240	-1.290560	43.221362	6.218074	48.148875
	2.560315	-1.927706	42.431344	4.306024	44.809662
	1.870727	-3.998431	40.535302	1.915961	38.452833
	2.412546	-0.812701	42.431344	4.306024	45.924667
	1.599818	-1.609133	43.853376	5.262049	47.506291
	2.511059	-1.131274	44.011379	7.333436	50.213542
	1.525933	-3.998431	41.325320	2.234636	39.561525
	2.043124	-2.564852	43.379365	3.509336	44.323849
	1.402793	-1.449847	42.431344	3.668674	44.650171
	1.870727	-4.317003	40.693306	2.871986	39.248288
	1.328908	-3.361285	41.325320	5.262049	43.226084
	2.215521	-3.520571	40.693306	3.509336	40.682071
	1.328908	-3.520571	41.799330	2.553311	40.832070
	2.117009	-2.724139	41.009313	1.756624	40.041798
	1.649074	-5.113436	41.641327	2.712649	39.240539
	2.092380	-3.679858	44.327386	3.668674	44.316202
	1.698330	-4.954149	41.009313	2.712649	38.767812
	2.240149	-3.520571	41.799330	4.465361	42.744120
	1.575190	-3.520571	40.851309	3.668674	40.999412
	2.166265	-3.839144	40.693306	2.234636	39.088798
	1.796843	-2.883425	38.481257	0.959936	36.557768
	2.190893	-4.794863	40.535302	2.393974	38.134413
	1.698330	-4.157717	40.535302	4.784036	41.161621
	2.314034	-4.794863	40.535302	1.915961	37.656400
	2.190893	-1.131274	43.537369	5.262049	47.668144
	2.461802	-2.883425	41.799330	3.668674	42.584579
	2.240149	-3.839144	39.745285	1.756624	37.662764
	2.363290	-6.228441	37.375232	-0.792777	30.354014
	2.289405	-2.086993	42.905355	4.943374	45.761736
	2.117009	-3.201998	40.219295	4.624699	41.641996
	2.338662	-3.679858	40.851309	2.553311	39.724763
	2.387918	-3.679858	40.693306	1.278611	38.292059
	2.387918	-4.476290	40.061292	1.915961	37.500963
	2.511059	-5.272723	38.955267	-0.633439	33.049106
	2.781968	-2.564852	39.587281	1.119274	38.141703
	2.461802	-4.317003	39.903288	1.915961	37.502246
	2.929737	-3.839144	39.271274	2.712649	38.144779
	2.584943	-4.476290	39.745285	1.278611	36.547606
	2.978993	-5.272723	36.427211	-0.633439	30.521050
	2.806596	-1.768420	41.641327	1.437949	41.310856
	3.151390	-4.476290	38.639260	0.322586	34.485556
	2.757340	3.488035	44.011379	7.174099	54.673513
	2.905109	-5.909868	40.377299	0.163249	34.630679
	2.806596	-1.131274	42.589348	2.712649	44.170723
	3.348415	-3.998431	39.587281	1.597286	37.186137
	2.880481	-5.432009	38.797264	0.003911	33.369166
	3.077506	-2.405565	40.535302	2.234636	40.364373
	2.215521	-3.042711	39.745285	1.119274	37.821846
	3.299159	-0.653414	41.167316	2.871986	43.385888
	2.314034	-3.520571	40.693306	0.959936	38.132671
	3.003621	-1.768420	41.799330	0.959936	40.990847
	2.511059	-2.564852	44.643393	0.800599	42.879140
	2.978993	-1.131274	42.431344	2.393974	43.694044
	2.609571	-2.246279	40.535302	2.553311	40.842334
	3.077506	-1.131274	41.641327	2.393974	42.904027
	2.511059	0.620878	41.799330	3.031324	45.451532
	2.954365	-2.405565	40.535302	2.553311	40.683048
	2.560315	-0.016268	43.221362	1.756624	44.961717
	3.225274	-3.042711	43.695372	0.003911	40.656572
	2.757340	0.143018	43.063358	2.553311	45.759688
	2.905109	-2.564852	41.483323	3.031324	41.949795
	2.584943	-2.724139	41.009313	0.959936	39.245110
	3.176018	-0.494128	41.483323	2.553311	43.542507
	2.511059	-1.131274	41.957334	3.509336	44.335396
	2.929737	-2.086993	41.641327	0.481924	40.036258
	2.831224	-2.246279	40.693306	1.915961	40.362988
	2.683456	-1.449847	43.221362	2.712649	44.484164
	2.683456	-0.175555	45.117404	4.943374	49.885223
	2.658827	-1.449847	42.431344	2.075299	43.056796
	2.855852	1.258024	47.013446	2.393974	50.665443
	2.535687	-2.086993	42.273341	0.959936	41.146284
	2.831224	-1.131274	42.905355	2.393974	44.168055
	2.880481	-2.086993	42.431344	4.943374	45.287725
	2.732712	-1.449847	44.011379	3.828011	46.389544
	2.708084	-0.653414	41.483323	2.712649	43.542558
	2.535687	-4.157717	40.219295	0.003911	36.065489
	2.387918	0.143018	41.641327	2.712649	44.496994
	2.658827	-1.927706	43.063358	2.234636	43.370288
	2.412546	-2.086993	44.011379	2.075299	43.999685
	2.708084	-2.246279	42.589348	3.987349	44.330417
	2.560315	-2.883425	41.325320	2.075299	40.517193
	2.609571	-2.086993	41.957334	1.437949	41.308290
	2.412546	-2.724139	42.115337	2.075299	41.466497
	2.658827	-0.016268	40.219295	1.597286	41.800313
	2.387918	-4.317003	40.851309	1.756624	38.290929
	2.683456	-1.290560	44.485390	3.509336	46.704166
	2.289405	-2.724139	44.327386	5.899399	47.502646
	2.683456	-3.998431	42.115337	2.234636	40.351543
	2.511059	-2.246279	42.431344	2.075299	42.260364
	2.560315	-3.042711	41.799330	1.915961	40.672580
	2.486431	-0.175555	41.957334	3.190661	44.972440
	2.437174	-3.839144	42.115337	3.190661	41.466854
	2.486431	-0.016268	45.117404	5.102711	50.203847
	2.658827	-2.883425	42.431344	3.190661	42.738580
	2.240149	-4.476290	42.589348	1.437949	39.551006
	2.634199	-2.883425	42.273341	1.756624	41.146539
	2.387918	-2.724139	43.379365	1.597286	42.252513
	2.609571	-1.927706	41.799330	2.075299	41.946923
	2.067752	-3.998431	40.219295	3.190661	39.411526
	2.781968	-3.998431	40.377299	1.437949	37.816817
	2.363290	-2.405565	41.009313	0.481924	39.085671
	2.781968	-4.794863	39.745285	0.481924	35.432345
	2.584943	-2.883425	41.483323	2.393974	40.993872
	2.781968	-2.883425	43.063358	5.102711	45.282644
	2.437174	-1.609133	42.747351	3.987349	45.125567
	3.028249	-4.317003	43.537369	1.437949	40.658314
	2.437174	-3.201998	41.325320	2.075299	40.198620
	2.929737	-0.653414	42.431344	2.234636	44.012566
	2.584943	-2.564852	42.589348	3.668674	43.693169
	2.855852	-3.042711	41.009313	1.915961	39.882562
	3.200646	-3.042711	40.377299	4.465361	41.799948
	3.299159	-0.812701	42.747351	3.509336	45.443987
	2.880481	-2.405565	42.589348	1.597286	41.781068
	3.545440	-2.246279	42.273341	1.437949	41.465010
	3.471556	-1.768420	42.905355	1.437949	42.574884
	4.161143	-3.520571	41.957334	1.597286	40.034048
	3.939490	-0.971987	41.957334	2.393974	43.379320
	4.407425	-1.768420	40.377299	3.668674	42.277553
	4.062631	0.143018	41.957334	1.756624	43.856976
	4.973872	-1.768420	40.693306	0.641261	39.566147
	4.924616	2.054456	45.275407	3.349999	50.679862
	5.663459	-1.449847	42.905355	-0.314764	41.140744
	5.638831	2.373029	45.749418	5.421386	53.543833
	6.426932	1.258024	43.379365	2.075299	46.712688
	6.377675	1.735883	44.327386	3.031324	49.094593
	7.387429	4.762327	46.065425	3.668674	54.496425
	7.215032	3.169462	45.433411	1.597286	50.200159
	8.372554	3.806608	46.381432	1.915961	52.104001
	8.471067	7.629484	45.117404	2.393974	55.140861
	9.259167	5.718046	48.751484	5.421386	59.890916
	9.333051	8.425916	50.331519	4.784036	63.541472
	9.948754	4.921613	49.067491	1.278611	55.267716
	10.638342	9.222349	53.175582	4.146686	66.544617
	11.081649	8.903776	51.121537	2.712649	62.737961
	12.091402	11.293074	52.543568	6.855424	70.692065
	12.337683	14.478804	53.965600	5.580724	74.025127
	13.519834	13.363798	55.545635	5.740061	74.649494
	14.431075	15.912382	56.651659	7.014761	79.578802
	15.022150	15.912382	57.441677	5.421386	78.775445
	15.834878	17.345961	60.443743	5.740061	83.529765
	17.140169	18.460966	59.653726	6.377411	84.492103
	17.608104	20.850264	63.761817	10.360849	94.972929
	18.371576	25.310286	62.655792	8.289461	96.255539
	18.273064	23.876707	64.551834	9.404824	97.833365
	19.923149	27.381010	66.605880	11.316874	105.303763
	20.489596	26.743864	67.869908	9.882836	104.496608
	22.336706	29.611021	69.291939	11.316874	110.219834
	23.100178	30.726026	70.239960	11.635549	112.601535
	24.627123	35.026762	77.350118	15.937661	128.314540
	25.907786	34.230329	72.136002	11.476211	117.842543
	27.114564	37.734632	76.876107	14.184949	128.795688
	28.690765	39.646071	77.508121	14.662961	131.817152
	29.749775	40.920362	78.930153	15.300311	135.150826
	31.104323	44.743238	79.878174	18.009048	142.630461
	31.769282	47.132536	83.512254	18.168386	148.813176
	32.237217	49.043974	83.828261	18.965074	151.837309
	32.951433	54.459715	87.462342	19.602424	161.524480
	34.355237	53.981855	91.412429	20.080436	165.474720
	35.118709	57.008299	93.308471	20.399111	170.715881
	36.891935	59.556883	97.258559	22.470499	179.285940
	37.039704	61.946180	96.626545	25.657249	184.229973
	38.689789	66.565489	98.680590	25.179236	190.425315
	39.083840	70.229078	102.314671	26.453936	198.997685
	40.635412	71.184798	102.788681	24.860561	198.834039
	41.152603	77.078398	106.580765	30.756049	214.415212
	42.482523	80.264128	110.530853	33.783461	224.578442
	42.778061	84.087004	111.636877	31.552736	227.276617
	44.132608	86.317015	116.692989	33.942799	236.952803
	43.418392	91.254897	121.433094	35.854849	248.542839
	45.142362	93.803481	123.329136	36.810874	253.943490
	45.117734	99.697081	125.541185	39.041599	264.279865
	46.447654	101.767806	128.701255	40.156961	270.626022
	46.349141	107.342833	134.073374	45.733774	287.149981
	47.482036	111.802855	136.601430	45.415099	293.819384
	47.334267	114.351439	141.183532	47.008474	302.543444
	48.171624	118.492888	145.133619	48.283174	311.909681
	48.097739	121.200759	146.081640	49.398536	316.680935
	48.245508	127.094359	152.243777	51.629261	330.967397
	48.220880	126.775786	151.453759	52.903961	331.133506
	48.344021	130.917235	154.613829	57.684086	343.215150
	47.974599	132.510100	155.877857	57.046736	345.434693
	47.876086	133.306533	158.089906	56.728061	348.124500
	48.171624	137.766555	160.775966	59.436799	357.979319
	47.235754	138.881560	164.094039	61.030174	364.005773
	48.073111	140.792998	164.884057	64.216924	369.893978
	47.285011	141.748717	167.096106	63.260898	372.105721
	47.285011	141.589430	168.518137	63.579574	373.687141
	46.890960	143.978728	166.306088	64.694936	374.979752
	45.905835	141.748717	166.780099	62.304874	370.833689
	45.142362	143.978728	169.150151	64.854274	377.983152
	44.403518	139.200133	166.464092	61.826861	367.491086
	43.492277	143.819442	169.940169	67.403673	381.163284
	43.122855	144.615874	170.730186	65.650961	380.997021
	42.581035	145.093734	171.678207	65.332286	382.104227
	42.457895	144.456588	169.150151	63.738911	377.345649
	40.807809	143.182296	172.784232	66.128974	382.095501
	40.487644	142.067290	168.992148	66.766323	377.825761
	39.601030	141.111571	168.518137	65.172949	374.802657
	38.788302	139.200133	167.096106	64.216924	370.513162
	37.926317	140.315138	166.622095	65.013611	371.950845
	36.571769	136.970122	162.356001	62.304874	361.630996
	35.291106	139.518706	164.094039	62.623548	366.236293
	34.527634	134.262252	161.249976	62.942224	358.454451
	33.000689	132.987960	161.091973	64.216924	358.296856
	32.483498	129.642943	160.143952	61.667524	351.454418
	31.449116	128.687224	157.141885	60.392824	346.221933
	31.449116	125.023635	151.769766	57.524749	334.318149
	29.602006	125.182921	152.875791	58.002761	336.061473
	30.266966	123.749342	150.821745	56.409386	330.980474
	27.582499	120.882186	148.609696	58.002761	327.494643
	27.360846	117.696455	147.977682	58.480774	324.154911
	25.562992	115.307158	146.081640	54.975349	316.364147
	24.947288	112.121428	141.657542	51.469924	305.248894
	22.977037	110.209990	142.763567	51.947936	304.921493
	22.632244	108.935698	138.813479	51.788599	299.537776
	21.031415	107.183547	135.337402	51.469924	293.990872
	21.006787	101.767806	132.019329	48.442511	282.229645
	18.790254	99.219222	129.491273	47.167811	275.878305
	18.494717	97.148497	126.489206	46.211786	269.849489
	17.115541	91.254897	124.119154	43.503049	258.877099
	17.411079	89.821318	120.959084	43.025036	253.805438
	16.278185	86.794875	120.011063	42.069011	248.874948
	15.810250	83.927717	118.431028	41.750336	244.109081
	14.332562	79.626982	113.216912	38.085574	230.929468
	14.061653	76.122679	110.846860	34.898823	221.868362
	12.756362	76.441252	109.108821	35.695511	221.245584
	12.386940	71.025511	105.632744	34.261474	210.919729
	11.475699	68.158354	101.998664	35.536174	205.693191
	11.007764	65.450484	101.840660	32.827436	200.118580
	10.318176	61.946180	96.468541	30.437373	188.852095
	9.702473	59.875456	96.310537	29.800024	185.986017
	9.086770	57.167586	96.152534	27.569299	180.889418
	8.939001	55.893293	91.728436	26.135261	173.756991
	8.544951	48.088255	86.830328	23.745199	158.663781
	7.806107	48.725401	85.882306	26.294599	160.902306
	7.264288	46.336103	84.618279	24.701224	155.655606
	6.944122	46.176817	81.616212	23.426524	151.219552
	6.574700	41.238935	80.194181	22.151823	143.584939
	5.934369	39.486784	78.456142	20.558449	138.501374
	5.786600	36.938200	75.770083	18.009048	130.717331
	5.417178	31.203886	72.610012	15.778324	119.592222
	5.466434	30.726026	71.029978	18.327724	120.083728
	4.358168	29.770307	69.291939	16.734348	115.796595
	4.727590	28.496015	67.395897	14.662961	110.554874
	4.136515	26.266004	66.605880	13.706936	106.578820
	4.333540	22.920988	62.971799	12.591574	98.484361
	3.964118	25.469572	62.971799	15.459649	103.901020
	4.013375	20.053831	60.601747	12.432236	93.087814
	3.520812	18.620252	60.285740	10.838861	89.744853
	3.791721	17.345961	61.707771	12.272899	91.326630
	3.151390	15.912382	59.021712	10.679524	85.613617
	3.348415	13.682371	56.493656	8.767474	78.943500
	2.954365	13.523085	55.545635	9.564161	78.632880
	3.471556	14.956663	54.439610	11.794886	81.191159
	2.658827	10.178068	51.437544	8.448799	70.064410
	3.274531	10.337354	52.543568	7.333436	70.214359
	2.806596	8.903776	49.541502	6.058736	64.504014
	3.077506	7.788771	50.331519	7.174099	65.294388
	2.708084	7.629484	50.963533	8.130124	66.723141
	2.880481	6.355192	49.067491	6.377411	61.800094
	2.609571	11.133787	50.805530	8.448799	70.388115
	2.978993	4.284467	46.855442	5.102711	56.242621
	2.412546	4.921613	46.855442	4.624699	56.401754
	3.446928	2.373029	45.433411	3.031324	50.837764
	2.535687	3.010175	46.223428	4.943374	54.176977
	2.880481	2.213743	44.643393	5.580724	52.437860
	2.658827	2.532316	44.485390	3.828011	50.845717
	3.151390	3.169462	47.171449	3.668674	54.009585
	2.929737	-0.653414	42.431344	2.075299	43.853229
	3.446928	1.576597	42.589348	2.075299	46.241243
	2.757340	1.895170	43.853376	3.031324	48.779869
	3.397671	-2.086993	39.903288	-0.314764	37.501532
	2.905109	2.691602	42.589348	6.377411	51.658361
	3.643953	5.558759	47.329453	7.492774	60.380986
	3.200646	3.965895	42.115337	2.393974	48.475205
	3.668581	-0.812701	42.115337	1.437949	42.740585
	3.126762	0.620878	43.379365	2.871986	46.872229
	3.791721	1.417310	44.643393	6.218074	52.278777
	3.570068	0.461591	42.905355	3.828011	47.194957
	4.111887	1.258024	43.063358	3.031324	47.352706
	3.643953	1.417310	42.431344	2.871986	46.720641
	4.456681	1.417310	41.799330	1.756624	44.973264
	3.840978	0.620878	42.747351	2.075299	45.443528
	4.629078	4.603041	45.749418	6.058736	56.411194
	4.284284	3.806608	44.327386	5.899399	54.033393
	4.826103	1.576597	45.591414	3.509336	50.677347
	4.382797	3.647321	45.591414	3.509336	52.748072
	4.949244	4.443754	47.961467	4.465361	56.870582
	4.456681	3.806608	45.433411	4.465361	53.705380
	5.392550	3.965895	44.801397	7.492774	56.260065
	4.629078	4.921613	45.275407	5.740061	55.937082
	5.170897	5.080900	46.539435	6.377411	57.997746
	4.604450	3.806608	44.327386	5.262049	53.396043
	5.220153	4.921613	46.855442	4.146686	55.923742
	4.358168	5.877333	48.751484	5.421386	60.050203
	5.220153	7.310911	47.803463	5.580724	60.695098
	4.727590	5.718046	46.855442	8.289461	60.862949
	5.146269	6.673765	47.961467	6.696086	61.331318
	4.727590	7.151625	49.225495	7.811449	64.188568
	4.973872	6.195905	47.645460	7.014761	60.856126
	4.555194	8.107344	50.489523	7.492774	66.089640
	5.835856	6.992338	50.647526	5.580724	63.220588
	4.407425	12.408079	52.069558	9.564161	74.041798
	5.367922	5.718046	51.595547	7.652111	64.965704
	4.481309	3.965895	46.223428	4.306024	54.495346
	5.244781	5.080900	47.961467	4.465361	57.507728
	4.505937	6.673765	50.331519	6.696086	63.701370
	5.294037	5.399473	47.329453	5.421386	58.150312
	4.407425	4.284467	47.013446	8.289461	59.587374
	5.343294	9.540922	52.543568	10.201511	72.286001
	4.629078	7.948057	49.225495	7.970786	65.144338
	5.466434	7.788771	50.805530	7.811449	66.405749
	4.949244	11.452360	54.439610	10.042174	75.934144
	5.589575	6.833052	50.805530	7.652111	65.290692
	4.826103	7.470198	51.595547	8.448799	67.514543
	5.934369	9.700209	53.333586	11.954224	74.988018
	5.392550	6.036619	50.173516	7.652111	63.862246
	6.205278	8.585203	51.279540	7.970786	67.835529
	5.786600	8.107344	51.753551	7.652111	67.513005
	6.673213	11.293074	51.437544	8.130124	70.860741
	5.958997	8.425916	52.859575	10.838861	72.124353
	7.116519	9.063062	55.229628	8.767474	73.060164
	6.648585	10.496641	55.071624	12.113561	77.681826
	7.412057	7.310911	51.279540	7.174099	65.764550
	7.190404	9.540922	52.543568	8.289461	70.373951
	7.978504	7.151625	50.647526	5.102711	62.901862
	7.904619	10.018782	50.647526	8.289461	68.955769
	8.569579	8.425916	52.543568	10.520186	71.489671
	8.175529	10.337354	53.649593	9.564161	73.551108
	8.988257	11.611647	55.387631	11.635549	78.634826
	9.283795	13.045225	55.861642	10.679524	79.586390
	9.554704	11.930219	55.703638	9.086149	76.720006
	9.554704	12.726652	54.439610	8.926811	76.093073
	9.973383	13.363798	54.439610	9.245486	77.048894
	9.998011	11.930219	55.703638	11.476211	79.110069
	11.057020	14.160231	56.019645	10.201511	80.381387
	10.983136	13.363798	58.073691	9.882836	81.320324
	11.426442	15.434522	58.547701	10.520186	84.502410
	11.746608	16.390241	58.863708	10.679524	85.933473
	12.189915	16.230955	60.759750	11.954224	88.944929
	12.337683	14.956663	56.493656	7.811449	79.261767
	13.396693	19.257399	62.497789	12.750911	94.506098
	13.322809	20.213117	61.707771	12.272899	94.193787
	13.741487	19.894544	60.917754	11.157536	91.969834
	14.209421	20.213117	60.443743	10.998199	91.655059
	14.800497	23.717420	64.077824	13.547599	101.342843
	14.677356	23.080275	62.971799	14.822299	100.874372
	15.120662	26.425291	65.815862	14.503624	106.744777
	15.711738	25.469572	67.237894	12.591574	105.299039
	16.179672	28.814589	68.659925	14.981636	112.456150
	16.573722	26.903150	68.975932	14.662961	110.542044
	16.943144	27.540297	68.343918	16.575011	112.459226
	17.460335	30.885313	69.449943	16.256336	116.591592
	18.519345	31.841032	70.081957	17.849711	119.772700
	18.519345	32.637465	69.765950	14.503624	116.907038
	18.617857	33.115324	72.926020	15.937661	121.979005
	19.208933	33.433897	71.661992	14.662961	119.758849
	19.455214	35.982481	77.666125	17.849711	131.498316
	20.046289	34.867475	72.610012	17.053024	124.530511
	20.194058	39.008924	76.244093	19.443086	134.696103
	20.588108	41.079649	77.508121	20.717786	139.305556
	20.637365	45.539671	79.246160	20.717786	145.503616
	21.129927	43.309660	78.140135	20.558449	142.008243
	21.006787	45.380384	81.616212	20.239773	147.236370
	21.844143	45.221098	82.090223	22.629836	149.941157
	21.523977	46.654677	83.196247	25.019899	154.870822
	22.312078	48.566114	85.408296	22.789174	156.763584
	21.868771	50.318266	86.356317	23.426524	160.101107
	22.681500	51.911131	88.094356	23.107848	163.113335
	22.139681	54.619002	89.832394	27.569299	172.020694
	23.001666	52.866850	87.146335	26.931949	166.945133
	22.312078	56.211866	89.990398	26.931949	173.134213
	22.952409	54.619002	90.306405	26.135261	171.060667
	22.804640	58.760450	92.202447	28.843999	179.806895
	23.444972	57.964018	93.150468	27.091286	178.205771
	22.829269	60.034742	94.730503	29.003336	183.768581
	23.346459	60.512602	95.678523	29.322011	185.513137
	22.853897	60.831175	96.626545	31.552736	189.010456
	23.247947	63.698332	96.152534	29.640686	189.491552
	22.952409	61.309034	96.784548	29.162674	187.256256
	23.050922	63.857619	97.574566	30.596711	192.028895
	23.272575	63.857619	99.312604	31.074724	194.244946
	23.297203	63.698332	96.626545	30.596711	190.921588
	22.952409	63.857619	99.628611	32.030749	195.516978
	23.494228	67.680495	103.578699	35.217499	206.476692
	23.223319	68.317640	101.682657	32.508761	202.509058
	23.174062	65.928343	100.102621	31.234061	197.265025
	22.927781	66.246916	100.260625	30.756049	197.263589
	22.681500	65.450484	100.892639	31.393399	197.736521
	22.582987	66.246916	98.838594	32.349424	197.434933
	22.632244	67.202635	102.630678	32.986774	202.820086
	22.385962	66.565489	103.104688	33.624124	203.294301
	22.262821	66.884062	101.682657	32.190086	200.756805
	22.164309	65.928343	105.158734	31.552736	202.639813
	21.721002	70.547652	105.316737	34.898823	210.763212
	21.499349	67.521208	105.000730	35.217499	207.739437
	21.277696	67.043349	101.998664	34.261474	203.303486
	21.326952	65.928343	100.260625	31.552736	197.741704
	21.056043	67.680495	101.682657	32.349424	201.712575
	20.982158	67.680495	101.524653	31.712074	200.917221
	20.514224	64.972624	99.312604	31.871411	196.156639
	20.785133	65.450484	100.734635	33.942799	200.127917
	20.046289	65.769057	102.788681	32.986774	201.544511
	19.824636	64.972624	100.576632	32.349424	197.898680
	19.381330	64.972624	101.682657	32.030749	198.686029
	19.455214	63.698332	98.838594	30.756049	193.292974
	18.814883	66.406202	99.628611	32.349424	198.384237
	18.765626	64.016905	98.680590	32.349424	195.046919
	18.125295	62.901900	97.574566	32.349424	192.825889
	18.322320	60.194029	93.624478	29.322011	183.140518
	17.780501	59.875456	96.626545	29.640686	186.142687
	18.002154	61.149748	96.942552	29.959361	188.051660
	17.238682	59.875456	95.994531	29.162674	185.032660
	17.361823	59.397596	94.572499	29.800024	183.770119
	16.746119	58.441877	94.414496	29.959361	182.815734
	16.475210	57.804731	92.834461	30.596711	181.235903
	15.933391	58.282591	92.992464	30.756049	182.031104
	15.958019	55.574720	91.886440	27.250623	174.711783
	15.366944	55.256147	90.148401	27.250623	172.655172
	15.490084	54.619002	90.938419	27.091286	172.648706
	14.726612	57.008299	90.938419	28.206648	176.153366
	14.874381	52.070417	89.200380	26.931949	168.202746
	14.086281	52.866850	88.252359	27.887974	169.007182
	14.307934	49.681120	87.304338	26.135261	163.120719
	13.913884	48.566114	86.988331	24.541886	160.096331
	14.061653	49.203260	85.408296	24.701224	159.312780
	13.248924	48.406828	85.882306	25.497911	159.787045
	13.667603	48.884687	83.038244	26.294599	158.217530
	12.978015	46.495390	83.670258	24.223211	154.388858
	13.002643	46.495390	83.828261	23.585861	153.909512
	12.411568	48.088255	83.986265	23.107848	155.182368
	12.510080	42.035368	82.722237	22.629836	147.387441
	11.943633	43.150374	81.142202	24.860561	149.153136
	12.386940	42.672514	79.720170	22.948511	145.341195
	11.820493	41.398222	79.562167	22.311161	143.271549
	12.042146	41.398222	79.246160	21.992486	142.636868
	11.648096	40.123930	77.824128	21.036461	138.984519
	11.845121	41.557508	76.876107	20.877123	139.310739
	11.426442	37.097487	77.350118	20.399111	134.846715
	11.426442	37.734632	76.244093	21.833149	135.811874
	10.884624	36.938200	79.562167	21.195799	137.696165
	11.303302	34.548902	72.768016	16.734348	124.051267
	10.318176	35.663908	73.558034	19.124411	128.346352
	10.810739	34.230329	72.294006	18.327724	124.852059
	10.638342	35.663908	73.242027	18.965074	127.871008
	10.539830	32.796751	70.555967	18.168386	121.521104
	9.998011	33.911756	72.768016	20.239773	126.919546
	10.564458	30.726026	72.136002	16.575011	119.437040
	10.022639	35.504621	73.716037	19.283748	128.504407
	10.318176	29.929594	69.291939	15.140974	114.362507
	9.480820	30.088881	68.975932	15.937661	115.002474
	10.121151	29.611021	67.869908	17.531036	115.011965
	9.677845	27.381010	66.131869	15.300311	108.813190
	10.465945	31.203886	69.923953	17.849711	118.977550
	10.195036	27.062437	66.131869	15.459649	108.653955
	9.998011	28.814589	67.711904	14.981636	111.508128
	9.677845	28.496015	69.291939	16.256336	114.044291
	9.800986	27.540297	66.447876	15.459649	109.447821
	9.850242	29.133161	70.555967	17.690373	117.379502
	9.677845	26.106718	66.289873	14.981636	107.378227
	9.209910	27.381010	66.605880	14.025611	108.012501
	9.653217	26.425291	65.499855	14.025611	105.950757
	9.406936	23.717420	64.235827	13.388261	101.341509
	9.776358	25.788145	63.287806	16.415674	105.491625
	9.554704	24.991712	64.551834	14.025611	103.569157
	9.825614	28.814589	64.551834	15.140974	108.507396
	9.456192	27.858870	68.027911	16.893686	112.780467
	9.850242	26.584578	66.921886	14.662961	108.169425
	9.456192	25.310286	64.867841	15.459649	105.637775
	9.727101	25.628858	65.973866	16.575011	108.177735
	9.382307	26.425291	65.657859	16.893686	108.976836
	9.677845	25.310286	65.025845	14.981636	105.317766
	9.431564	26.266004	63.287806	13.706936	103.260746
	9.603961	25.150999	65.183848	14.344286	104.679133
	9.456192	25.469572	66.763883	14.662961	106.896416
	9.751729	24.354567	64.235827	15.300311	103.890705
	9.677845	23.080275	65.183848	13.547599	101.811721
	9.825614	24.354567	64.077824	15.937661	104.370051
	9.800986	24.354567	63.129802	14.025611	101.509980
	10.219664	26.106718	62.655792	11.794886	100.557396
	9.702473	23.717420	64.393830	13.866274	101.977525
	10.096523	29.451735	65.341852	15.618986	110.412572
	9.874870	24.195280	65.499855	17.212361	106.907496
	10.071895	19.735258	61.075757	10.520186	91.331201
	9.948754	25.150999	65.183848	14.025611	104.360458
	10.342805	23.558134	64.867841	13.388261	101.814236
	10.170408	23.398847	62.813796	11.794886	98.007529
	10.367433	23.398847	62.339785	14.503624	100.242256
	10.195036	24.832426	64.235827	14.344286	103.412539
	10.244292	27.062437	65.183848	15.618986	107.865271
	10.465945	26.584578	66.289873	16.734348	109.608798
	10.441317	26.425291	66.289873	15.140974	107.856137
	10.441317	26.266004	67.395897	14.662961	108.324862
	10.490573	24.832426	64.709838	14.184949	103.727212
	10.441317	25.628858	68.659925	16.734348	111.023132
	10.909252	23.717420	63.761817	13.388261	100.867498
	10.687598	30.248167	67.711904	15.937661	113.897732
	10.835367	24.832426	65.341852	14.025611	104.199889
	10.662970	26.425291	65.815862	14.662961	106.904114
	10.983136	24.673140	64.551834	15.778324	105.003297
	10.909252	26.425291	66.289873	15.459649	108.174812
	11.278674	26.425291	65.657859	16.893686	108.976836
	11.130905	27.381010	67.711904	16.256336	111.349250
	11.623468	25.469572	65.499855	11.794886	102.764313
	11.426442	26.743864	67.711904	14.662961	109.118729
	11.500327	27.381010	66.131869	15.140974	108.653853
	12.017518	28.336729	68.027911	17.212361	113.577001
	11.869749	29.611021	68.185914	16.415674	114.212609
	11.845121	28.496015	66.921886	17.371699	112.789601
	11.943633	27.858870	67.711904	15.618986	111.189760
	12.017518	29.451735	70.713971	15.778324	115.944029
	11.943633	28.177443	69.291939	15.778324	113.247705
	11.919005	30.248167	71.187981	17.371699	118.807847
	12.214543	28.655302	69.291939	18.965074	116.912315
	12.362311	30.885313	69.923953	17.849711	118.658977
	12.386940	29.929594	68.975932	16.415674	115.321200
	12.510080	30.088881	69.449943	16.256336	115.795159
	12.534708	33.274610	69.607946	17.849711	120.732267
	12.485452	32.000318	72.136002	20.399111	124.535432
	12.362311	31.522459	70.239960	18.168386	119.930805
	12.633221	33.911756	73.716037	21.036461	128.664254
	12.510080	29.611021	71.345985	16.415674	117.372679
	12.583965	32.956038	72.926020	17.531036	123.413093
	12.756362	32.478178	72.452009	17.053024	121.983211
	13.101155	35.504621	72.294006	17.690373	125.489001
	12.756362	32.318891	72.294006	20.399111	125.012008
	13.175040	33.115324	71.819995	18.168386	123.103705
	12.756362	33.433897	73.084023	17.531036	124.048956
	13.273552	33.593183	72.452009	19.124411	125.169603
	13.002643	34.230329	73.716037	18.487061	126.433427
	13.544462	34.389616	76.402096	19.602424	130.394136
	13.298181	36.619627	74.348051	19.283748	130.251426
	13.470577	35.186048	74.822062	20.717786	130.725896
	13.199668	35.663908	74.822062	19.761761	130.247730
	13.593718	36.938200	75.612079	19.921099	132.471377
	13.421321	33.433897	71.345985	16.893686	121.673567
	13.692231	37.575346	76.244093	20.239773	134.059213
	13.544462	37.734632	76.560100	23.267186	137.561919
	13.692231	39.008924	75.612079	19.761761	134.382765
	13.741487	38.212492	79.088156	24.223211	141.523859
	13.815371	37.575346	76.876107	20.558449	135.009902
	13.199668	35.823194	75.454076	20.080436	131.357706
	13.815371	37.097487	75.928086	19.602424	132.627996
	13.445949	37.734632	76.402096	20.558449	134.695177
	14.086281	36.460340	74.664058	21.514474	132.638872
	13.593718	39.646071	77.824128	21.673811	139.144010
	14.234050	37.256773	75.928086	19.283748	132.468608
	13.642974	38.212492	77.350118	20.080436	135.643045
	14.332562	40.283216	77.824128	20.877123	138.984468
	13.150412	39.168211	79.404163	24.063874	142.636247
	14.037025	39.964643	79.720170	21.992486	141.677300
	13.421321	39.327497	79.404163	22.470499	141.202159
	14.381818	41.238935	78.614146	22.948511	142.801592
	13.396693	39.486784	77.508121	21.195799	138.190704
	13.987768	40.123930	79.088156	20.877123	140.089210
	13.618346	42.194654	76.876107	21.673811	140.744573
	13.963140	38.531065	77.982132	22.789174	139.302370
	13.347437	39.964643	79.878174	21.992486	141.835303
	13.913884	39.008924	79.720170	22.151823	140.880918
	13.421321	41.079649	81.142202	22.311161	144.533012
	14.012396	38.531065	76.876107	19.761761	135.168933
	13.396693	38.531065	76.244093	21.833149	136.608306
	13.716859	41.876081	78.140135	22.311161	142.327378
	13.298181	39.964643	79.088156	24.541886	143.594685
	13.716859	40.761076	79.246160	22.789174	142.796409
	13.298181	36.938200	76.718104	19.124411	132.780715
	13.544462	42.991087	83.196247	23.426524	149.613857
	13.125784	40.283216	78.930153	22.151823	141.365193
	13.544462	39.646071	78.772149	23.107848	141.526068
	12.978015	41.557508	77.666125	21.992486	141.216119
	13.248924	39.327497	78.614146	22.948511	140.890154
	12.805618	38.849638	76.244093	21.514474	136.608204
	13.224296	38.212492	77.666125	20.558449	136.437065
	12.854874	39.964643	76.560100	20.717786	137.242529
	13.027271	39.327497	78.298139	21.673811	139.299447
	12.953387	39.646071	79.878174	24.382548	143.906792
	13.347437	38.212492	75.612079	19.443086	133.267657
	12.756362	38.212492	79.720170	21.036461	138.969123
	12.928759	38.849638	77.824128	20.399111	137.072877
	12.657849	36.778913	75.454076	19.443086	131.676075
	13.076527	38.053205	76.402096	23.585861	138.041163
	12.510080	39.486784	77.824128	22.311161	139.622073
	12.608593	37.256773	75.138069	20.717786	133.112628
	12.731733	40.442503	77.192114	21.355136	138.989753
	12.534708	37.893919	77.666125	20.717786	136.277829
	12.362311	35.823194	75.138069	18.646399	129.607662
	12.411568	38.531065	79.088156	22.470499	140.089720
	12.116030	35.823194	76.876107	22.629836	135.329138
	12.313055	37.256773	75.770083	21.036461	134.063317
	12.386940	36.141768	75.138069	19.443086	130.722922
	12.337683	38.849638	76.560100	21.195799	136.605536
	12.239171	36.141768	73.874041	19.124411	129.140219
	12.091402	34.389616	74.190048	19.283748	127.863412
	12.313055	35.982481	75.612079	19.761761	131.356321
	11.845121	35.663908	75.138069	21.673811	132.475787
	12.116030	35.823194	74.822062	20.877123	131.522379
	11.574211	36.619627	75.138069	20.399111	132.156806
	11.820493	37.416059	73.874041	18.487061	129.777161
	11.500327	35.345335	73.874041	20.239773	129.459149
	11.648096	34.867475	73.874041	21.514474	130.255989
	11.254046	34.071043	75.612079	20.877123	130.560246
	11.697352	33.433897	73.400030	20.877123	127.711050
	11.007764	33.911756	76.086090	19.283748	129.281595
	11.672724	32.956038	72.610012	17.371699	122.937748
	10.884624	34.389616	73.874041	18.487061	126.750717
	11.475699	33.115324	72.768016	19.283748	125.167089
	10.539830	34.867475	72.294006	22.629836	129.791317
	11.820493	35.026762	72.294006	19.443086	126.763854
	10.441317	32.318891	72.294006	17.849711	122.462608
	11.032392	32.318891	70.871974	17.212361	120.403227
	10.441317	31.522459	71.029978	18.009048	120.561485
	11.130905	32.159605	72.768016	20.558449	125.486069
	10.564458	33.115324	72.610012	19.602424	125.327760
	11.032392	32.159605	74.980065	18.327724	125.467393
	10.268920	34.867475	71.029978	18.646399	124.543852
	10.933880	34.071043	73.874041	20.558449	128.503532
	10.392061	31.203886	70.081957	17.849711	119.135554
	11.057020	29.929594	70.555967	18.168386	118.653947
	10.367433	31.522459	69.449943	20.239773	121.212175
	10.983136	31.841032	71.187981	18.965074	121.994087
	10.465945	31.841032	71.187981	18.327724	121.356737
	10.662970	32.318891	70.397964	17.053024	119.769879
	10.465945	30.407453	71.661992	18.168386	120.237831
	10.761483	30.566740	70.081957	19.283748	119.932445
	10.244292	30.407453	69.449943	18.487061	118.344457
	10.933880	30.885313	69.291939	19.761761	119.939013
	10.170408	30.088881	69.133936	17.371699	116.594515
	10.835367	30.248167	68.659925	16.415674	115.323766
	10.342805	31.681745	69.449943	16.893686	118.025374
	10.859995	30.088881	72.452009	18.487061	121.027951
	10.342805	32.478178	72.452009	21.673811	126.603998
	10.909252	29.451735	70.555967	17.849711	117.857413
	10.392061	31.203886	70.397964	18.646399	120.248248
	10.884624	28.655302	67.711904	16.256336	112.623542
	10.219664	29.929594	68.659925	17.212361	115.801880
	10.909252	30.566740	68.343918	15.778324	114.688981
	10.293548	28.336729	66.763883	17.531036	112.631648
	10.859995	29.451735	68.975932	18.487061	116.914727
	10.195036	31.841032	67.869908	17.212361	116.923301
	10.736855	29.133161	69.291939	16.575011	115.000112
	10.293548	29.292448	69.923953	15.459649	114.676050
	10.835367	30.248167	70.239960	17.690373	118.178501
	10.342805	31.841032	67.711904	19.443086	118.996022
	10.835367	29.611021	69.291939	17.849711	116.752671
	10.145780	31.203886	70.555967	19.124411	120.884264
	10.933880	29.133161	68.659925	17.849711	115.642798
	10.268920	28.018156	68.501922	16.893686	113.413764
	11.106277	28.973875	69.133936	18.487061	116.594871
	10.342805	27.858870	68.659925	17.053024	113.571818
	11.106277	31.363172	73.084023	20.558449	125.005644
	10.515202	29.929594	69.765950	18.168386	117.863930
	11.106277	28.177443	67.395897	14.184949	109.758288
	10.293548	29.929594	68.343918	16.734348	115.007861
	10.933880	29.133161	68.817928	16.734348	114.685438
	10.367433	31.681745	69.449943	20.877123	122.008811
	11.032392	29.611021	69.133936	17.531036	116.275993
	10.392061	33.274610	70.081957	19.921099	123.277665
	11.303302	29.451735	70.239960	18.009048	117.700743
	10.539830	29.292448	70.397964	16.256336	115.946748
	11.697352	26.903150	68.343918	14.981636	110.228704
	10.933880	27.858870	67.869908	16.575011	112.303788
	11.426442	30.566740	69.291939	20.399111	120.257790
	11.327930	33.752470	71.187981	19.124411	124.064862
	11.697352	29.133161	67.079890	15.937661	112.150713
	11.254046	29.770307	69.765950	17.849711	117.385968
	11.648096	29.292448	70.397964	16.734348	116.424760
	11.401814	29.770307	67.711904	17.531036	115.013248
	11.623468	27.699583	71.661992	16.096999	115.458573
	11.451071	32.796751	72.452009	21.036461	126.285221
	11.697352	30.248167	70.871974	18.168386	119.288527
	11.426442	29.611021	69.291939	15.937661	114.840621
	11.697352	30.248167	68.343918	16.575011	115.167096
	11.155533	30.885313	69.449943	18.327724	118.662979
	11.746608	32.637465	68.817928	18.805736	120.261129
	11.623468	29.611021	69.133936	17.690373	116.435330
	11.968261	31.681745	71.187981	17.849711	120.719438
	11.795864	29.929594	72.926020	18.168386	121.024000
	12.116030	30.088881	70.713971	17.531036	118.333887
	11.697352	32.159605	72.136002	19.761761	124.057368
	12.140658	31.681745	71.187981	18.646399	121.516125
	11.721980	34.389616	72.452009	20.558449	127.400073
	12.288427	30.566740	70.081957	18.327724	118.976420
	11.992889	30.248167	70.081957	15.937661	116.267785
	12.313055	31.841032	72.452009	17.690373	121.983415
	11.919005	34.230329	73.874041	20.399111	128.503481
	12.362311	30.885313	74.190048	19.921099	124.996459
	11.968261	30.885313	70.713971	17.371699	118.970982
	12.485452	36.938200	73.084023	21.195799	131.218021
	11.697352	33.752470	73.874041	21.036461	128.662971
	12.263799	33.593183	72.926020	18.646399	125.165602
	11.672724	32.956038	71.661992	19.124411	123.742440
	12.337683	33.115324	72.452009	18.487061	124.054394
	11.672724	31.841032	71.661992	20.239773	123.742797
	12.116030	32.796751	72.610012	19.124411	124.531174
	11.697352	34.548902	73.400030	18.168386	126.117318
	12.239171	34.230329	75.138069	20.558449	129.926847
	11.549583	35.026762	74.822062	20.558449	130.407272
	12.608593	32.796751	72.294006	20.239773	125.330530
	11.451071	31.681745	71.503988	18.327724	121.513457
	12.313055	36.938200	75.770083	22.629836	135.338119
	11.795864	34.389616	73.874041	20.717786	128.981442
	12.214543	36.778913	72.768016	19.921099	129.468028
	11.943633	33.593183	73.874041	18.646399	126.113623
	12.116030	34.389616	75.454076	19.921099	129.764790
	12.066774	34.389616	74.822062	22.151823	131.363501
	12.337683	33.115324	75.138069	20.239773	128.493166
	12.189915	33.911756	74.032044	18.487061	126.430861
	12.042146	33.274610	72.926020	18.805736	125.006366
	12.337683	36.141768	74.506055	21.195799	131.843621
	12.386940	33.274610	72.926020	20.877123	127.077753
	12.411568	34.867475	72.452009	20.239773	127.559258
	12.288427	35.982481	74.506055	22.151823	132.640359
	12.189915	32.478178	74.190048	18.487061	125.155287
	12.017518	35.345335	75.296072	19.602424	130.243831
	12.460824	34.548902	73.558034	19.602424	127.709360
	12.263799	38.371778	75.612079	21.036461	135.020319
	12.436196	33.593183	72.926020	20.877123	127.396327
	12.239171	34.867475	73.242027	20.399111	128.508613
	12.337683	35.504621	76.086090	21.992486	133.583197
	12.042146	34.071043	75.612079	20.877123	130.560246
	12.263799	35.663908	74.980065	19.761761	130.405734
	12.116030	36.141768	79.246160	20.080436	135.468363
	12.288427	35.823194	74.506055	20.558449	130.887698
	12.091402	33.433897	74.032044	21.355136	128.821077
	12.313055	34.867475	74.190048	20.239773	129.297297
	12.017518	36.301054	73.874041	19.443086	129.618180
	12.559337	36.778913	75.612079	21.514474	133.905466
	11.968261	36.778913	75.454076	21.514474	133.747463
	12.214543	31.841032	71.187981	20.558449	123.587462
	11.919005	34.867475	74.664058	20.717786	130.249320
	12.116030	34.071043	75.138069	20.239773	129.448885
	12.214543	32.637465	72.136002	18.009048	122.782515
	12.411568	40.601790	76.560100	19.283748	136.445638
	11.992889	35.345335	75.138069	21.355136	131.838540
	12.386940	34.548902	72.926020	19.761761	127.236683
	11.968261	32.956038	73.874041	22.629836	129.459914
	12.337683	31.681745	71.819995	18.168386	121.670127
	11.771236	34.389616	72.768016	19.443086	126.600718
	12.091402	33.274610	72.452009	18.327724	124.054343
	11.943633	36.619627	74.980065	20.877123	132.476815
	12.313055	32.956038	73.874041	21.355136	128.185214
	11.820493	34.867475	75.454076	21.195799	131.517350
	12.066774	33.274610	73.716037	20.080436	127.071083
	11.475699	35.026762	74.190048	21.673811	130.890621
	12.165286	32.318891	70.871974	17.690373	120.881239
	11.352558	33.593183	73.242027	18.327724	125.162934
	11.771236	39.008924	73.242027	21.355136	133.606087
	11.081649	32.956038	73.400030	22.629836	128.985904
	11.549583	33.752470	74.822062	20.399111	128.973643
	10.958508	32.796751	73.558034	21.195799	127.550583
	11.623468	33.752470	72.452009	20.558449	126.762928
	10.933880	34.389616	73.716037	19.921099	128.026751
	11.549583	33.274610	72.768016	19.124411	125.167037
	11.007764	34.867475	72.452009	19.921099	127.240583
	11.672724	32.637465	73.242027	21.992486	127.871977
	10.983136	33.593183	72.294006	19.921099	125.808288
	11.992889	33.752470	73.242027	19.283748	126.278245
	11.130905	33.115324	73.874041	20.080436	127.069800
	11.648096	31.044600	71.187981	17.212361	119.444942
	10.761483	30.726026	72.136002	20.399111	123.261140
	11.401814	37.416059	75.770083	22.948511	136.134653
	10.909252	32.159605	70.871974	18.965074	121.996652
	11.524955	32.159605	71.661992	19.124411	122.946008
	10.933880	32.478178	71.819995	18.805736	123.103909
	11.229417	30.566740	70.871974	18.805736	120.244450
	10.564458	31.203886	71.345985	18.805736	121.355606
	11.130905	32.637465	73.242027	21.195799	127.075289
	10.564458	33.115324	72.610012	20.239773	125.965110
	11.303302	32.478178	75.296072	18.646399	126.420649
	10.613714	30.407453	69.923953	15.618986	115.950393
	11.475699	32.159605	70.397964	18.009048	120.566617
	10.564458	32.000318	71.661992	22.789174	126.451484
	10.859995	31.681745	71.029978	18.965074	121.676797
	10.268920	33.115324	71.187981	21.992486	126.295791
	10.909252	32.956038	71.661992	19.283748	123.901778
	10.342805	32.478178	73.874041	19.443086	125.795305
	11.155533	32.000318	71.977998	18.168386	122.146703
	10.244292	31.044600	72.294006	18.487061	121.825666
	11.057020	31.363172	72.136002	22.151823	125.650998
	10.244292	31.681745	70.555967	19.602424	121.840136
	10.983136	31.841032	70.871974	19.921099	122.634105
	10.342805	32.478178	71.503988	19.602424	123.584590
	10.983136	30.088881	68.817928	17.212361	116.119170
	10.342805	31.044600	70.713971	18.965074	120.723644
	11.106277	32.956038	72.610012	19.602424	125.168473
	10.515202	31.044600	71.661992	20.558449	123.265040
	11.057020	31.363172	74.032044	19.124411	124.519627
	10.441317	34.389616	74.506055	21.992486	130.888157
	11.229417	31.044600	71.345985	17.849711	120.240295
	10.244292	31.203886	71.503988	19.283748	121.991623
	10.909252	31.363172	71.819995	21.833149	125.016316
	10.539830	34.071043	69.291939	19.124411	122.487393
	10.884624	32.159605	72.452009	19.921099	124.532713
	10.416689	31.203886	69.765950	18.168386	119.138222
	11.130905	29.611021	70.871974	18.965074	119.448069
	10.613714	30.407453	72.768016	21.036461	124.211930
	11.032392	32.318891	72.136002	20.080436	124.535329
	10.515202	31.522459	71.187981	21.036461	123.746901
	10.983136	35.026762	73.558034	22.151823	130.736619
	10.465945	30.885313	71.187981	18.487061	120.560355
	10.736855	30.885313	69.923953	18.009048	118.818315
	10.589086	31.203886	71.661992	19.602424	122.468301
	10.983136	30.248167	71.503988	20.239773	121.991929
	10.539830	31.044600	71.029978	19.443086	121.517663
	10.983136	30.726026	74.032044	18.805736	123.563806
	10.613714	33.752470	70.239960	19.124411	123.116841
	10.859995	30.248167	70.239960	18.009048	118.497176
	10.465945	31.044600	70.397964	17.531036	118.973599
	10.564458	30.566740	72.136002	19.761761	122.464503
	10.810739	31.681745	70.239960	22.311161	124.232866
	11.130905	28.655302	68.343918	15.937661	112.936881
	11.303302	32.478178	73.874041	21.036461	127.388680
	11.106277	32.796751	71.345985	18.646399	122.789134
	10.909252	30.726026	72.768016	18.646399	122.140441
	11.278674	30.566740	70.397964	18.805736	119.770439
	11.155533	31.522459	70.081957	19.761761	121.366176
	10.859995	30.566740	70.871974	20.399111	121.837825
	11.155533	32.000318	71.187981	19.921099	123.109398
	11.081649	30.885313	70.397964	18.009048	119.292325
	11.130905	33.115324	71.819995	18.487061	123.422380
	10.884624	32.318891	72.768016	20.239773	125.326681
	11.032392	31.841032	71.819995	21.673811	125.334838
	11.352558	31.522459	72.768016	18.965074	123.255549
	11.549583	31.044600	72.294006	18.965074	122.303679
	11.451071	30.407453	70.871974	17.371699	118.651126
	11.352558	31.044600	72.294006	19.602424	122.941029
	11.180161	32.318891	71.819995	21.195799	125.334685
	11.278674	32.159605	71.187981	20.239773	123.587360
	11.303302	32.478178	72.294006	20.558449	125.330632
	11.451071	33.433897	70.397964	19.602424	123.434284
	11.426442	29.611021	70.081957	16.893686	116.586664
	11.352558	32.159605	73.242027	18.168386	123.570018
	11.254046	32.637465	72.294006	20.080436	125.011906
	11.598839	32.637465	70.713971	21.833149	125.184584
	11.549583	32.478178	71.819995	19.921099	124.219272
	11.524955	30.885313	70.713971	19.124411	120.723694
	11.598839	32.000318	70.713971	19.761761	122.476050
	11.648096	30.885313	72.452009	18.646399	121.983721
	11.549583	30.885313	72.768016	17.212361	120.865690
	11.401814	33.433897	73.716037	21.036461	128.186395
	11.623468	33.115324	74.348051	20.877123	128.340498
	11.524955	29.611021	69.765950	17.849711	117.226681
	11.352558	31.681745	72.136002	18.487061	122.304808
	11.820493	35.345335	73.716037	21.036461	130.097833
	11.648096	31.522459	71.819995	19.124411	122.466865
	11.919005	31.522459	69.923953	20.239773	121.686186
	11.500327	32.796751	73.400030	21.036461	127.233242
	11.426442	31.363172	69.923953	19.124411	120.411537
	11.278674	34.230329	74.190048	21.514474	129.934851
	11.672724	31.681745	72.926020	18.487061	123.094826
	11.820493	36.938200	73.874041	20.877123	131.689364
	11.721980	31.363172	73.242027	19.602424	124.207622
	11.451071	33.115324	72.768016	22.151823	128.035164
	11.574211	31.681745	72.768016	20.558449	125.008210
	11.204789	33.115324	73.716037	20.399111	127.230472
	11.845121	32.796751	72.294006	18.965074	124.055830
	11.475699	33.115324	71.187981	20.239773	124.543078
	11.672724	34.071043	73.084023	22.948511	130.103577
	11.524955	33.752470	74.822062	21.355136	129.929667
	11.869749	31.681745	72.136002	19.443086	123.260833
	11.524955	32.796751	73.874041	19.921099	126.591890
	11.598839	32.159605	72.610012	18.965074	123.734691
	11.377186	33.433897	72.452009	19.602424	125.488330
	11.524955	32.637465	71.503988	20.239773	124.381226
	11.524955	36.938200	73.874041	23.585861	134.398101
	11.697352	32.796751	72.136002	20.877123	125.809877
	11.451071	34.548902	74.348051	20.080436	128.977389
	11.721980	30.885313	73.716037	19.443086	124.044436
	11.475699	33.115324	73.874041	20.239773	127.229138
	11.820493	32.637465	71.503988	18.168386	122.309839
	11.574211	33.911756	73.716037	21.514474	129.142267
	11.820493	35.982481	74.032044	23.426524	133.441048
	11.475699	30.248167	69.923953	18.327724	118.499844
	11.919005	33.115324	73.242027	19.443086	125.800436
	11.426442	34.230329	74.190048	20.877123	129.297501
	11.795864	31.522459	72.768016	19.602424	123.892899
	11.426442	33.752470	77.508121	23.267186	134.527777
	11.574211	30.566740	71.661992	17.849711	120.078443
	11.401814	32.478178	72.136002	18.168386	122.782566
	11.721980	33.115324	73.400030	20.080436	126.595790
	11.475699	31.841032	70.713971	18.646399	121.201401
	11.845121	35.345335	73.242027	21.673811	130.261173
	11.327930	31.841032	72.926020	20.717786	125.484838
	11.869749	32.956038	71.503988	21.992486	126.452511
	11.451071	31.522459	72.768016	19.761761	124.052236
	11.672724	32.956038	73.716037	19.283748	125.955823
	11.475699	32.637465	72.926020	19.283748	124.847233
	11.894377	30.248167	73.400030	17.531036	121.179233
	11.426442	37.575346	75.612079	25.179236	138.366661
	11.549583	32.478178	72.768016	20.877123	126.123317
	11.327930	33.115324	72.610012	21.036461	126.761798
	11.426442	32.000318	72.610012	19.443086	124.053417
	11.081649	36.460340	74.822062	22.789174	134.071575
	11.475699	32.159605	72.294006	18.487061	122.940671
	11.204789	34.230329	76.244093	21.195799	131.670221
	11.795864	32.637465	72.294006	22.151823	127.083294
	11.229417	31.681745	73.558034	20.877123	126.116902
	11.672724	32.637465	72.294006	20.080436	125.011906
	11.204789	32.318891	72.136002	20.558449	125.013342
	11.574211	33.433897	70.397964	19.283748	123.115609
	11.032392	31.203886	71.977998	18.487061	121.668945
	11.426442	32.796751	71.819995	20.877123	125.493870
	11.377186	33.433897	72.294006	22.151823	127.879726
	11.500327	31.363172	73.874041	20.399111	125.636324
	11.032392	32.956038	73.084023	19.602424	125.642484
	11.475699	32.000318	74.664058	19.602424	126.266800
	11.081649	32.637465	72.610012	20.558449	125.805926
	11.598839	32.796751	71.977998	22.311161	127.085910
	10.761483	32.318891	71.819995	20.558449	124.697335
	11.057020	34.548902	71.345985	18.965074	124.859960
	10.786111	30.407453	68.659925	18.327724	117.395102
	11.549583	33.593183	73.400030	20.717786	127.710999
	10.835367	30.566740	71.661992	20.558449	122.787180
	11.057020	30.407453	71.187981	19.283748	120.879183
	10.441317	33.115324	74.032044	22.151823	129.299192
	11.007764	32.000318	72.452009	20.080436	124.532763
	10.638342	31.522459	69.133936	17.849711	118.506106
	11.229417	30.566740	71.029978	18.009048	119.605766
	10.293548	31.203886	70.871974	18.965074	121.040934
	11.155533	33.752470	72.294006	24.382548	130.429024
	10.490573	31.841032	72.294006	20.877123	125.012161
	10.983136	31.681745	73.400030	20.399111	125.480886
	10.539830	32.796751	72.926020	20.558449	126.281219
	10.884624	34.708189	74.822062	19.602424	129.132674
	10.293548	31.681745	72.136002	19.602424	123.420171
	10.909252	32.478178	71.819995	20.239773	124.537947
	10.465945	31.841032	72.610012	23.426524	127.877568
	10.736855	31.044600	71.661992	20.239773	122.946365
	10.638342	33.115324	72.136002	20.877123	126.128450
	10.810739	32.159605	72.926020	20.558449	125.644073
	10.638342	34.389616	75.612079	20.558449	130.560143
	11.032392	30.407453	71.187981	17.849711	119.445146
	10.983136	32.000318	72.768016	20.558449	125.326783
	10.835367	31.522459	72.610012	21.992486	126.124957
	10.909252	31.363172	71.661992	20.239773	123.264938
	10.909252	31.681745	70.713971	19.124411	121.520127
	10.884624	30.566740	70.871974	17.849711	119.288425
	11.057020	34.230329	71.345985	20.558449	126.134762
	10.786111	32.318891	72.768016	23.107848	128.194756
	10.983136	32.159605	73.716037	21.036461	126.912103
	11.327930	31.681745	70.871974	18.805736	121.359455
	10.933880	30.885313	75.612079	20.239773	126.737165
	11.229417	31.363172	71.345985	19.602424	122.311580
	10.983136	30.566740	71.503988	21.514474	123.585202
	11.155533	33.274610	72.452009	21.355136	127.081755
	10.933880	32.637465	72.452009	22.629836	127.719309
	10.933880	32.159605	70.397964	20.239773	122.797342
	11.081649	33.752470	71.819995	19.602424	125.174889
	11.278674	29.770307	68.975932	17.849711	116.595951
	10.884624	32.000318	72.452009	20.399111	124.851439
	11.327930	31.044600	72.768016	21.833149	125.645764
	10.712227	32.000318	72.452009	20.558449	125.010776
	11.303302	32.318891	71.029978	20.717786	124.066655
	10.441317	31.363172	71.029978	19.921099	122.314248
	11.155533	31.841032	70.871974	18.646399	121.359405
	10.342805	30.885313	71.029978	19.443086	121.358376
	11.032392	31.841032	71.819995	20.399111	124.060138
	10.342805	31.681745	73.716037	23.107848	128.505631
	10.958508	32.478178	72.136002	21.195799	125.809978
	10.244292	31.203886	72.610012	20.399111	124.213009
	11.057020	32.000318	71.661992	20.239773	123.902084
	10.367433	33.593183	72.294006	20.717786	126.604975
	10.884624	30.885313	71.029978	21.036461	122.951752
	10.416689	32.318891	71.977998	21.195799	125.492688
	10.958508	32.000318	71.345985	22.311161	125.657464
	10.145780	31.522459	71.345985	19.921099	122.789542
	10.859995	31.203886	70.397964	19.124411	120.726261
	10.441317	31.363172	71.345985	19.443086	122.152243
	10.983136	35.823194	74.348051	21.514474	131.685719
	10.613714	31.522459	72.294006	23.107848	126.924313
	10.736855	32.478178	72.452009	20.558449	125.488636
	10.835367	30.885313	72.452009	20.239773	123.577095
	10.983136	28.814589	69.765950	17.849711	116.430249
	10.613714	31.522459	71.029978	19.921099	122.473535
	10.909252	32.318891	73.084023	22.629836	128.032750
	10.983136	34.071043	72.136002	21.514474	127.721519
	10.884624	32.000318	73.084023	21.514474	126.598815
	10.687598	32.956038	75.928086	21.833149	130.717272
	10.958508	32.956038	73.558034	20.558449	127.072519
	11.130905	31.203886	72.136002	18.487061	121.826949
	11.032392	32.956038	72.768016	21.036461	126.760514
	11.254046	30.407453	69.765950	20.399111	120.572514
	10.835367	33.115324	71.503988	19.443086	124.062398
	11.130905	30.407453	70.871974	19.602424	120.881851
	10.835367	32.956038	72.452009	21.514474	126.922520
	11.155533	29.292448	71.503988	18.805736	119.602172
	10.884624	30.248167	72.452009	18.965074	121.665250
	11.155533	32.478178	73.084023	21.036461	126.598662
	10.859995	32.318891	71.661992	23.107848	127.088732
	11.254046	34.389616	71.661992	20.877123	126.928731
	10.712227	31.363172	72.136002	20.239773	123.738948
	11.130905	28.814589	67.711904	17.053024	113.579516
	10.638342	32.956038	73.874041	21.355136	128.185214
	11.623468	32.000318	73.716037	21.673811	127.390166
	10.515202	31.363172	71.503988	19.921099	122.788259
	11.204789	30.248167	73.874041	19.124411	123.246619
	10.786111	32.796751	71.029978	19.283748	123.110477
	10.958508	31.841032	72.768016	20.080436	124.689484
	10.712227	33.274610	73.242027	20.558449	127.075086
	11.032392	33.115324	71.503988	20.717786	125.337098
	10.441317	31.044600	71.187981	22.629836	124.862417
	11.130905	30.566740	70.555967	19.283748	120.406456
	10.884624	31.681745	71.503988	20.239773	123.425507
	11.254046	35.823194	75.296072	22.629836	133.749103
	11.155533	30.885313	73.084023	19.602424	123.571759
	10.835367	31.203886	71.661992	21.833149	124.699026
	11.352558	33.433897	74.980065	20.877123	129.291086
	11.254046	31.681745	72.452009	21.195799	125.329553
	11.229417	31.681745	71.345985	20.080436	123.108166
	10.983136	31.681745	72.136002	20.239773	124.057521
	11.451071	31.841032	72.610012	19.761761	124.212806
	10.736855	32.478178	71.345985	20.877123	124.701286
	11.204789	32.000318	72.610012	22.470499	127.080830
	10.662970	33.433897	74.348051	20.239773	128.021722
	11.254046	30.407453	71.819995	19.602424	121.829872
	10.441317	33.433897	73.084023	21.355136	127.873056
	11.180161	32.000318	72.610012	20.239773	124.850105
	10.441317	32.637465	71.661992	18.965074	123.264530
	11.229417	31.522459	69.923953	20.080436	121.526848
	10.662970	33.593183	73.558034	23.904536	131.055753
	10.810739	32.637465	71.661992	20.877123	125.176580
	10.564458	32.000318	73.716037	21.036461	126.752816
	10.712227	31.841032	73.400030	19.921099	125.162160
	10.318176	30.566740	71.345985	19.124411	121.037136
	10.884624	30.885313	70.871974	21.833149	123.590436
	10.884624	32.318891	72.610012	21.195799	126.124702
	11.155533	31.363172	71.503988	20.717786	123.584947
	10.933880	34.708189	71.503988	20.239773	126.451950
	10.933880	31.522459	72.136002	20.399111	124.057572
	10.859995	33.115324	71.661992	23.107848	127.885164
	11.007764	31.044600	72.610012	21.195799	124.850411
	11.106277	30.885313	71.661992	22.470499	125.017803
	10.810739	32.478178	73.558034	21.195799	127.232010
	11.106277	30.726026	72.610012	18.646399	121.982438
	10.835367	34.708189	74.506055	21.673811	130.888055
	11.032392	31.522459	71.503988	20.558449	123.584896
	11.057020	33.911756	74.032044	24.860561	132.804361
	11.130905	31.681745	71.977998	20.399111	124.058855
	10.736855	31.044600	70.871974	20.717786	122.634360
	11.155533	31.522459	71.661992	20.239773	123.424224
	10.613714	32.796751	75.138069	21.514474	129.449293
	11.032392	34.389616	72.926020	19.602424	126.918059
	10.589086	32.000318	73.716037	21.036461	126.752816
	11.057020	31.363172	71.345985	21.833149	124.542305
	10.170408	30.566740	72.136002	21.514474	124.217216
	11.130905	30.407453	73.558034	20.399111	124.364598
	10.465945	33.115324	73.558034	21.514474	128.187831
	11.007764	31.841032	72.768016	20.080436	124.689484
	10.736855	32.796751	71.661992	19.761761	124.220504
	10.933880	31.841032	76.086090	21.673811	129.600932
	10.539830	31.044600	71.345985	21.673811	124.064395
	11.130905	30.726026	72.136002	20.399111	123.261140
	10.515202	29.133161	69.765950	17.690373	116.589484
	10.933880	32.956038	72.926020	21.195799	127.077855
	11.007764	34.071043	73.242027	22.948511	130.261581
	11.327930	31.363172	70.555967	20.877123	122.796263
	10.786111	33.274610	72.136002	22.470499	127.881111
	10.786111	30.726026	71.503988	19.283748	121.513763
	11.081649	31.044600	71.187981	18.009048	120.241629
	10.835367	31.044600	72.926020	21.036461	125.007080
	11.574211	29.451735	72.294006	18.965074	120.710814
	10.884624	30.726026	71.661992	20.399111	122.787129
	11.130905	32.000318	71.661992	21.355136	125.017446
	10.786111	32.796751	72.452009	21.833149	127.081908
	10.835367	30.566740	70.555967	18.487061	119.609768
	10.416689	33.752470	70.713971	19.283748	123.750189
	11.032392	31.363172	72.136002	20.877123	124.376298
	10.392061	32.318891	71.661992	23.426524	127.407407
	10.909252	31.522459	73.084023	21.195799	125.802280
	10.589086	32.318891	74.348051	22.151823	128.818766
	11.081649	31.363172	72.294006	19.761761	123.418939
	10.638342	34.389616	74.032044	22.948511	131.370171
	10.933880	33.752470	71.503988	20.239773	125.496232
	10.958508	30.407453	71.819995	20.877123	123.104572
	10.687598	32.318891	71.503988	22.948511	126.771390
	10.909252	30.407453	71.503988	19.921099	121.832540
	11.032392	33.115324	74.348051	20.877123	128.340498
	11.007764	31.522459	72.136002	20.877123	124.535584
	11.007764	31.841032	72.136002	20.399111	124.376145
	11.204789	32.159605	70.713971	19.602424	122.475999
	10.564458	31.522459	72.452009	21.195799	125.170266
	11.130905	31.841032	71.187981	21.992486	125.021499
	10.515202	30.885313	71.819995	20.717786	123.423094
	11.278674	32.318891	71.503988	20.080436	123.903315
	10.392061	31.522459	71.661992	19.124411	122.308862
	11.057020	31.681745	73.558034	21.036461	126.276240
	10.613714	36.141768	73.716037	24.382548	134.240353
	11.057020	34.230329	76.402096	24.223211	134.855637
	10.490573	32.478178	73.242027	20.558449	126.278653
	10.564458	30.248167	71.819995	19.761761	121.829923
	10.613714	31.522459	72.926020	21.833149	126.281627
	10.810739	29.770307	70.239960	21.195799	121.206066
	10.786111	30.885313	70.555967	20.558449	121.999729
	11.229417	33.593183	72.768016	22.948511	129.309710
	10.662970	31.363172	72.294006	21.036461	124.693639
	10.712227	31.681745	72.294006	20.080436	124.056187
	11.007764	31.044600	74.190048	18.646399	123.881046
	10.539830	30.566740	71.819995	20.558449	122.945183
	10.712227	32.796751	72.926020	24.223211	129.945982
	10.638342	31.841032	72.136002	21.036461	125.013495
	10.933880	34.071043	72.294006	20.877123	127.242172
	10.712227	31.203886	69.291939	20.080436	120.576261
	11.229417	29.292448	69.449943	17.849711	116.592102
	10.810739	29.929594	71.977998	20.239773	122.147366
	11.155533	29.133161	71.187981	19.761761	120.082904
	10.613714	32.159605	73.874041	23.267186	129.300832
	11.032392	30.726026	71.503988	20.717786	122.947801
	10.465945	35.026762	72.452009	22.311161	129.789932
	11.007764	31.681745	71.503988	21.355136	124.540869
	10.638342	31.681745	72.294006	20.399111	124.374862
	11.032392	28.973875	68.659925	19.921099	117.554899
	10.244292	31.363172	72.294006	21.833149	125.490327
	10.933880	31.363172	73.558034	22.789174	127.710380
	10.244292	29.292448	69.607946	18.965074	117.865468
	10.835367	34.071043	75.296072	19.761761	129.128876
	10.195036	31.681745	72.294006	20.239773	124.215525
	10.909252	31.681745	71.977998	21.036461	124.696205
	10.219664	34.071043	72.452009	24.063874	130.586926
	10.564458	29.929594	71.819995	20.399111	122.148700
	10.515202	32.478178	71.029978	20.877123	124.385279
	10.884624	31.681745	73.084023	21.514474	126.280242
	10.638342	32.318891	70.713971	20.877123	123.909985
	10.884624	31.203886	72.294006	22.789174	126.287065
	10.958508	32.478178	74.980065	22.151823	129.610066
	10.884624	33.274610	72.294006	21.195799	126.764415
	11.130905	29.611021	71.029978	19.602424	120.243422
	10.589086	32.796751	73.242027	21.992486	128.031264
	11.106277	29.929594	70.239960	19.443086	119.612640
	10.810739	32.478178	72.926020	22.311161	127.715359
	11.057020	31.522459	71.819995	22.151823	125.494278
	10.638342	31.681745	71.977998	21.514474	125.174217
	10.884624	34.230329	72.136002	20.558449	126.924780
	10.293548	30.566740	74.664058	20.717786	125.948584
	10.983136	32.000318	72.452009	21.195799	125.648126
	10.293548	33.752470	75.296072	24.701224	133.749766
	10.859995	32.000318	71.661992	21.673811	125.336121
	10.145780	31.522459	72.136002	23.585861	127.244322
	10.687598	32.000318	70.239960	21.514474	123.754752
	10.219664	32.956038	72.452009	20.239773	125.647820
	10.539830	31.044600	72.136002	20.877123	124.057725
	10.662970	32.478178	73.084023	21.514474	127.076674
	10.564458	31.522459	74.190048	22.789174	128.501680
	10.835367	32.478178	72.768016	21.673811	126.920005
	10.909252	31.681745	71.029978	21.514474	124.226197
	10.786111	31.044600	71.503988	20.717786	123.266374
	10.909252	36.141768	73.084023	21.992486	131.218277
	10.909252	30.566740	70.871974	20.399111	121.837825
	10.736855	32.318891	72.452009	21.673811	126.444711
	11.130905	31.681745	72.610012	23.107848	127.399606
	10.490573	28.973875	70.239960	19.443086	118.656921
	10.933880	31.841032	73.242027	20.558449	125.641507
	10.342805	32.637465	73.558034	20.877123	127.072622
	11.130905	32.159605	73.242027	20.877123	126.278755
	10.416689	31.681745	72.926020	23.904536	128.512301
	11.155533	31.522459	71.187981	21.355136	124.065576
	10.613714	32.956038	71.503988	21.355136	125.815162
	10.638342	30.726026	72.136002	21.195799	124.057827
	10.318176	32.159605	71.345985	21.355136	124.860725
	10.835367	33.593183	74.190048	22.470499	130.253729
	10.465945	32.637465	73.084023	21.036461	126.757948
	11.278674	31.363172	71.977998	23.267186	126.608357
	10.441317	32.000318	71.977998	21.673811	125.652128
	10.983136	29.292448	70.713971	19.443086	119.449505
	10.195036	30.885313	72.610012	22.311161	125.806486
	10.835367	32.637465	72.136002	21.673811	126.447278
	10.416689	31.681745	72.294006	21.833149	125.808899
	10.958508	32.956038	72.768016	21.036461	126.760514
	10.342805	31.044600	72.768016	22.311161	126.123777
	10.909252	32.000318	75.612079	21.673811	129.286208
	10.367433	30.566740	71.503988	20.080436	122.151164
	11.130905	28.018156	68.975932	16.893686	113.887774
	10.170408	33.274610	75.454076	22.789174	131.517860
	11.229417	34.230329	74.190048	25.816586	134.236963
	10.293548	32.637465	68.817928	20.080436	121.535829
	10.909252	30.088881	70.239960	19.443086	119.771927
	10.170408	31.841032	70.871974	21.036461	123.749467
	10.786111	32.637465	72.136002	20.399111	125.172578
	10.539830	30.726026	73.716037	22.629836	127.071900
	10.761483	31.681745	72.768016	21.833149	126.282910
	10.293548	30.248167	74.664058	22.948511	127.860736
	10.859995	32.000318	72.452009	21.833149	126.285476
	10.613714	30.885313	71.029978	19.761761	121.677052
	10.712227	32.478178	72.136002	21.036461	125.650641
	10.416689	33.274610	72.768016	21.992486	128.035112
	11.130905	31.841032	71.029978	23.904536	126.775545
	10.465945	31.841032	72.610012	21.992486	126.443530
	11.032392	31.203886	71.819995	20.399111	123.422992
	10.392061	30.885313	72.294006	21.673811	124.853130
	10.835367	32.637465	74.506055	22.151823	129.295343
	10.268920	31.203886	72.136002	21.992486	125.332374
	10.958508	35.345335	71.187981	22.311161	128.844477
	10.465945	31.363172	71.819995	22.789174	125.972341
	11.081649	30.566740	71.029978	20.239773	121.836491
	10.318176	29.292448	69.765950	19.602424	118.660821
	10.958508	31.203886	71.977998	20.399111	123.580996
	10.318176	31.044600	74.032044	21.514474	126.591117
	11.057020	31.522459	72.768016	22.470499	126.760974
	10.465945	31.363172	69.923953	20.239773	121.526899
	10.933880	32.956038	73.874041	25.497911	132.327989
	10.367433	32.637465	72.768016	21.833149	127.238629
	10.539830	30.248167	70.397964	19.124411	119.770542
	10.219664	35.345335	75.454076	23.904536	134.703947
	10.638342	28.814589	68.975932	18.168386	115.958906
	9.776358	30.566740	71.661992	23.107848	125.336580
	10.712227	33.274610	72.926020	20.717786	126.918416
	10.096523	29.929594	71.503988	19.602424	121.036006
	10.933880	31.522459	73.242027	20.558449	125.322934
	10.244292	31.044600	72.452009	21.036461	124.533070
	10.515202	29.451735	70.239960	22.311161	122.002856
	9.850242	32.318891	72.294006	22.470499	127.083396
	10.736855	32.000318	72.294006	21.514474	125.808798
	10.047267	32.318891	70.713971	21.036461	124.069323
	10.983136	29.133161	70.397964	18.646399	118.177524
	10.047267	33.593183	74.980065	22.789174	131.362422
	10.638342	32.159605	72.294006	21.036461	125.490071
	10.047267	30.885313	75.612079	23.426524	129.923915
	10.662970	34.867475	75.138069	24.541886	134.547430
	10.071895	31.044600	71.977998	21.036461	124.059059
	10.564458	32.637465	71.977998	21.036461	125.651924
	10.096523	32.159605	72.768016	21.833149	126.760769
	10.662970	29.611021	68.343918	19.602424	117.557362
	10.047267	29.133161	71.029978	20.717786	120.880925
	10.613714	30.248167	72.768016	23.904536	126.920719
	10.145780	32.796751	73.874041	23.426524	130.097315
	10.490573	30.566740	72.452009	19.602424	122.621173
	10.170408	36.301054	75.296072	25.338573	136.935699
	10.564458	32.637465	73.084023	22.789174	128.510661
	10.367433	31.522459	70.871974	23.107848	125.502282
	10.465945	31.522459	72.610012	21.833149	125.965620
	10.416689	30.885313	71.503988	22.948511	125.337812
	10.515202	34.071043	74.506055	23.904536	132.481634
	10.268920	30.248167	72.452009	19.602424	122.302599
	10.589086	32.956038	71.661992	18.646399	123.264428
	10.342805	32.159605	75.454076	22.470499	130.084179
	10.687598	32.159605	72.926020	23.745199	128.830823
	10.539830	32.318891	71.977998	21.992486	126.289376
	10.761483	30.088881	71.029978	20.239773	121.358632
	10.392061	33.433897	73.874041	22.311161	129.619099
	10.219664	30.885313	71.503988	22.311161	124.700462
	10.638342	31.363172	72.294006	23.904536	127.561714
	10.441317	31.841032	71.345985	22.151823	125.338840
	10.515202	34.548902	73.242027	23.426524	131.217453
	10.293548	33.115324	73.716037	21.833149	128.664509
	10.441317	30.566740	72.294006	20.558449	123.419194
	10.564458	31.841032	71.661992	21.036461	124.539485
	10.490573	30.726026	71.819995	21.514474	124.060495
	10.859995	30.726026	71.345985	23.585861	125.657872
	10.539830	30.885313	71.187981	21.355136	123.428430
	10.342805	32.318891	72.926020	21.195799	126.440709
	10.761483	36.141768	74.190048	22.948511	133.280326
	10.465945	29.611021	71.345985	20.080436	121.037441
	10.539830	32.159605	76.402096	24.063874	132.625575
	10.613714	30.566740	72.452009	22.151823	125.170572
	10.638342	30.885313	72.768016	22.470499	126.123828
	10.589086	31.203886	71.345985	21.673811	124.223681
	10.638342	30.885313	71.819995	20.877123	123.582431
	10.515202	32.478178	70.239960	19.761761	122.479899
	10.687598	28.814589	70.871974	19.761761	119.448324
	10.318176	33.752470	74.348051	26.135261	134.235782
	10.786111	30.566740	71.819995	21.195799	123.582534
	10.613714	32.478178	73.242027	23.745199	129.465403
	10.884624	31.522459	72.294006	21.673811	125.490276
	10.539830	31.841032	71.503988	21.036461	124.381481
	11.032392	34.230329	71.029978	20.558449	125.818755
	10.662970	29.292448	70.871974	20.558449	120.722871
	10.933880	31.363172	70.239960	23.426524	125.029656
	10.490573	29.133161	71.029978	20.877123	121.040262
	10.835367	29.133161	71.187981	19.443086	119.764229
	10.441317	31.203886	72.294006	20.877123	124.375015
	11.204789	32.478178	75.770083	22.789174	131.037434
	10.071895	32.478178	72.610012	23.904536	128.992727
	10.810739	28.655302	70.081957	18.965074	117.702332
	10.121151	31.203886	72.136002	21.195799	124.535686
	10.909252	33.593183	72.452009	22.789174	128.834366
	10.441317	29.929594	69.449943	20.080436	119.459972
	10.712227	31.681745	72.136002	22.151823	125.969571
	10.022639	30.726026	70.081957	21.355136	122.163119
	10.810739	31.044600	71.661992	21.673811	124.380402
	10.047267	31.841032	73.874041	22.470499	128.185571
	10.712227	30.566740	71.345985	19.761761	121.674486
	10.071895	30.885313	71.187981	21.195799	123.269092
	10.687598	30.566740	72.610012	21.992486	125.169238
	9.899498	30.248167	70.555967	22.151823	122.955958
	10.638342	30.726026	71.029978	21.673811	123.429815
	10.662970	34.230329	73.558034	25.338573	133.126936
	10.515202	31.681745	73.874041	22.151823	127.707610
	10.121151	30.726026	71.819995	20.399111	122.945133
	10.416689	31.203886	75.138069	21.195799	127.537753
	10.047267	30.885313	72.136002	21.673811	124.695126
	10.638342	33.115324	73.242027	25.019899	131.377249
	9.973383	31.203886	71.187981	22.151823	124.543691
	10.638342	34.867475	72.452009	22.629836	129.949320
	10.047267	31.044600	70.239960	22.311161	123.595721
	10.490573	30.885313	71.661992	20.717786	123.265091
	10.244292	31.363172	71.977998	21.992486	125.333657
	10.490573	29.292448	71.345985	23.745199	124.383631
	10.096523	31.841032	73.716037	22.948511	128.505580
	10.638342	31.363172	73.716037	22.948511	128.027720
	10.293548	31.044600	72.768016	20.717786	124.530402
	10.441317	30.726026	71.345985	19.602424	121.674435
	10.096523	32.637465	72.452009	22.789174	127.878647
	10.884624	33.911756	72.294006	24.860561	131.066323
	10.244292	29.292448	70.713971	19.921099	119.927517
	10.884624	30.248167	69.765950	20.877123	120.891240
	10.441317	31.203886	72.452009	21.833149	125.489044
	10.539830	31.522459	74.190048	22.151823	127.864330
	10.441317	31.681745	72.926020	23.745199	128.352963
	10.662970	31.681745	73.874041	22.470499	128.026285
	10.342805	33.752470	72.452009	23.585861	129.790340
	10.712227	31.522459	71.503988	22.470499	125.496946
	10.145780	31.841032	70.871974	21.355136	124.068142
	10.539830	30.566740	72.452009	21.514474	124.533222
	10.268920	30.726026	71.187981	21.992486	123.906494
	10.490573	31.044600	71.977998	23.426524	126.449122
	10.195036	31.841032	73.558034	22.311161	127.710227
	10.638342	32.956038	72.294006	21.673811	126.923854
	10.318176	31.363172	72.136002	22.948511	126.447685
	10.219664	32.318891	72.926020	21.833149	127.078059
	10.465945	30.566740	71.503988	19.761761	121.832489
	10.564458	32.478178	71.819995	22.311161	126.609334
	10.564458	30.726026	71.819995	23.904536	126.450558
	10.638342	30.885313	72.452009	21.355136	124.692458
	10.490573	33.752470	72.136002	21.992486	127.880958
	10.589086	30.566740	74.980065	21.355136	126.901941
	10.662970	31.522459	72.294006	21.673811	125.490276
	10.638342	29.929594	73.716037	23.745199	127.390830
	10.638342	30.088881	72.294006	21.992486	124.375372
	10.515202	30.885313	71.029978	22.789174	124.704464
	10.786111	32.637465	72.610012	23.267186	128.514663
	10.613714	33.115324	73.084023	22.151823	128.351170
	10.884624	30.885313	70.871974	21.036461	122.793748
	10.490573	31.522459	72.452009	21.992486	125.966954
	10.835367	31.841032	73.242027	23.904536	128.987595
	10.515202	30.726026	72.452009	22.151823	125.329859
	10.958508	31.044600	74.506055	20.239773	125.790428
	10.490573	29.451735	70.239960	19.921099	119.612793
	11.229417	32.956038	72.926020	22.789174	128.671231
	10.268920	31.522459	71.661992	23.904536	127.088987
	10.835367	30.726026	71.345985	21.673811	123.745822
	10.096523	30.885313	70.713971	22.311161	123.910444
	10.736855	31.522459	73.716037	23.745199	128.983695
	10.096523	33.593183	74.348051	23.426524	131.367758
	10.539830	29.929594	71.661992	19.283748	120.875334
	10.071895	32.956038	73.084023	22.311161	128.351222
	10.884624	31.203886	72.610012	24.860561	128.674459
	9.973383	30.726026	70.713971	21.195799	122.635796
	10.515202	31.522459	70.871974	23.107848	125.502282
	9.924126	31.203886	72.610012	22.311161	126.125059
	10.712227	31.841032	70.713971	21.514474	124.069476
	9.825614	31.681745	72.452009	21.833149	125.966903
	10.662970	36.301054	75.454076	23.585861	135.340991
	10.195036	31.203886	72.452009	24.541886	128.197781
	10.786111	31.203886	71.187981	21.833149	124.225016
	10.244292	31.841032	72.610012	22.311161	126.762205
	10.810739	32.159605	73.400030	23.904536	129.464171
	10.416689	33.593183	74.190048	24.223211	132.006442
	10.564458	32.637465	74.032044	25.816586	132.486095
	10.096523	32.478178	71.661992	23.585861	127.726031
	10.712227	31.522459	72.452009	21.992486	125.966954
	10.244292	29.929594	70.239960	21.036461	121.206015
	10.539830	32.796751	72.294006	21.355136	126.445893
	10.367433	31.841032	74.980065	23.426524	130.247620
	10.490573	31.681745	72.926020	22.789174	127.396939
	10.515202	31.363172	71.345985	24.063874	126.773030
	10.465945	30.726026	71.661992	22.470499	124.858517
	10.465945	31.522459	71.819995	21.195799	124.538252
	10.441317	31.522459	71.187981	20.877123	123.587564
	10.589086	34.548902	73.084023	22.470499	130.103424
	10.515202	30.885313	72.768016	24.701224	128.354553
	10.515202	30.566740	71.503988	21.833149	123.903876
	10.662970	29.292448	74.980065	22.789174	127.061687
	10.884624	30.407453	72.294006	22.311161	125.012620
	10.589086	31.681745	71.977998	21.514474	125.174217
	10.712227	30.566740	71.029978	21.036461	122.633178
	10.342805	32.796751	71.977998	21.833149	126.607898
	10.983136	30.088881	71.345985	23.585861	125.020726
	10.465945	30.566740	71.187981	21.036461	122.791182
	10.736855	30.726026	73.716037	21.833149	126.275212
	10.465945	31.681745	72.452009	22.311161	126.444916
	10.933880	31.522459	73.400030	21.833149	126.755638
	10.564458	31.203886	72.452009	21.036461	124.692356
	10.859995	32.956038	70.397964	21.195799	124.549800
	10.268920	31.841032	72.452009	24.701224	128.994265
	10.859995	34.071043	74.348051	24.701224	133.120317
	10.342805	31.841032	73.242027	23.745199	128.828257
	10.933880	29.133161	71.029978	19.443086	119.606225
	10.244292	32.000318	73.558034	22.948511	128.506863
	10.835367	32.796751	73.716037	25.816586	132.329374
	10.096523	30.566740	74.190048	21.514474	126.271261
	10.958508	30.407453	71.661992	21.036461	123.105906
	10.244292	30.885313	71.819995	21.355136	124.060444
	10.539830	32.000318	71.661992	21.514474	125.176784
	9.899498	30.088881	71.029978	23.107848	124.226707
	10.736855	29.451735	68.185914	20.239773	117.877422
	9.800986	31.681745	72.610012	24.860561	129.152319
	10.564458	33.115324	72.294006	23.267186	128.676516
	9.948754	31.841032	72.926020	22.151823	126.918875
	10.712227	30.566740	72.768016	21.036461	124.371217
	10.244292	31.203886	72.294006	21.992486	125.490378
	10.490573	30.566740	72.136002	24.701224	127.403965
	9.998011	33.115324	73.084023	25.975924	132.175270
	10.441317	30.088881	71.503988	21.992486	123.585355
	9.973383	34.867475	73.400030	24.860561	133.128066
	10.589086	31.044600	71.503988	21.195799	123.744386
	9.702473	31.681745	73.242027	21.514474	126.438246
	10.490573	33.752470	74.190048	24.541886	132.484404
	10.022639	30.566740	74.664058	24.382548	129.613347
	10.687598	30.248167	70.555967	21.036461	121.840595
	9.948754	31.681745	71.503988	23.585861	126.771594
	10.662970	34.071043	71.819995	22.311161	128.202199
	10.071895	31.203886	72.610012	22.151823	125.965722
	10.589086	31.044600	70.239960	20.877123	122.161683
	9.924126	29.929594	71.029978	21.355136	122.314708
	10.589086	29.133161	71.977998	23.745199	124.856358
	10.145780	31.203886	72.452009	22.629836	126.285731
	10.638342	33.115324	75.928086	23.745199	132.788609
	10.121151	32.478178	73.084023	22.470499	128.032700
	10.736855	29.451735	69.449943	20.080436	118.982113
	10.342805	33.433897	75.454076	26.931949	135.819921
	10.268920	33.274610	72.136002	22.789174	128.199786
	10.465945	30.885313	71.977998	22.151823	125.015135
	10.022639	31.841032	72.452009	22.789174	127.082215
	10.416689	32.637465	73.716037	24.382548	130.736050
	10.465945	29.292448	71.029978	21.355136	121.677562
	10.268920	30.726026	73.874041	22.151823	126.751891
	10.268920	29.929594	71.187981	21.514474	122.632049
	10.047267	33.433897	72.926020	22.151823	128.511740
	10.367433	30.566740	72.136002	21.514474	124.217216
	10.441317	31.841032	72.136002	21.514474	125.491508
	10.367433	28.336729	69.449943	21.036461	118.823133
	10.244292	30.566740	72.452009	25.019899	128.038647
	10.465945	31.203886	70.397964	22.151823	123.753673
	10.564458	31.681745	72.610012	23.585861	127.877619
	10.490573	33.274610	73.874041	22.789174	129.937825
	10.465945	30.726026	72.610012	21.673811	125.009850
	10.564458	31.681745	71.187981	21.673811	124.543538
	10.342805	30.566740	71.819995	22.629836	125.016571
	10.662970	31.681745	72.294006	25.019899	128.995650
	10.687598	29.611021	69.291939	20.717786	119.620746
	10.465945	31.522459	72.452009	22.151823	126.126292
	10.859995	32.956038	73.242027	22.151823	128.349888
	10.441317	29.451735	70.871974	20.717786	121.041495
	10.983136	31.044600	75.454076	23.426524	129.925199
	10.392061	32.637465	75.454076	26.135261	134.226801
	10.786111	30.407453	72.452009	22.948511	125.807974
	10.318176	32.159605	72.610012	23.426524	128.196141
	10.465945	31.363172	71.503988	21.833149	124.700309
	10.687598	32.637465	71.345985	21.833149	125.816598
	10.613714	31.363172	72.452009	22.789174	126.604355
	10.392061	32.159605	71.503988	25.019899	128.683492
	10.539830	31.681745	71.187981	22.151823	125.021550
	10.022639	31.522459	74.664058	22.948511	129.135028
	10.515202	29.929594	70.713971	20.080436	120.724000
	9.850242	28.496015	71.661992	19.761761	119.919768
	10.687598	33.433897	74.190048	26.772611	134.396556
	9.948754	30.566740	70.713971	21.673811	122.954521
	10.441317	30.088881	70.397964	21.992486	122.479330
	9.874870	34.708189	73.558034	24.382548	132.648771
	10.367433	29.929594	71.029978	21.833149	122.792720
	9.924126	31.363172	72.768016	21.673811	125.804999
	10.539830	31.841032	74.822062	23.904536	130.567630
	10.071895	31.203886	72.294006	24.541886	128.039778
	10.564458	30.885313	73.084023	22.470499	126.439835
	9.998011	31.522459	72.136002	22.311161	125.969622
	10.416689	33.593183	73.400030	24.223211	131.216424
	10.022639	30.248167	70.081957	21.514474	121.844597
	10.367433	30.726026	70.239960	21.195799	122.161785
	10.145780	30.885313	70.555967	22.948511	124.389791
	10.465945	32.478178	72.136002	24.223211	128.837391
	10.465945	30.566740	73.400030	22.789174	126.755944
	10.318176	32.000318	73.242027	23.107848	128.350193
	10.515202	28.814589	69.133936	19.761761	117.710285
	10.219664	31.203886	73.874041	24.223211	129.301138
	10.392061	30.885313	71.977998	24.382548	127.245860
	10.244292	29.611021	70.081957	21.673811	121.366789
	10.515202	30.726026	72.294006	22.948511	125.968543
	10.342805	31.363172	71.661992	23.107848	126.133013
	10.441317	30.088881	70.555967	20.399111	121.043959
	10.342805	33.115324	72.926020	23.267186	129.308530
	10.638342	30.566740	72.926020	23.107848	126.600608
	10.145780	31.681745	73.558034	25.019899	130.259678
	10.687598	31.841032	73.874041	23.904536	129.619608
	9.874870	30.088881	70.397964	21.036461	121.523305
	10.589086	30.407453	70.713971	21.514474	122.635897
	9.825614	32.000318	73.084023	23.426524	128.510865
	10.810739	35.504621	72.136002	25.657249	133.297872
	9.924126	31.681745	73.084023	23.904536	128.670305
	10.490573	30.566740	71.187981	21.036461	122.791182
	9.800986	29.929594	71.661992	21.992486	123.584072
	10.638342	29.929594	74.980065	22.151823	127.061483
	10.195036	31.522459	71.819995	22.311161	125.653615
	10.293548	31.044600	71.661992	22.789174	125.495765
	10.539830	34.548902	73.242027	26.613274	134.404202
	10.441317	30.566740	72.452009	23.107848	126.126598
	10.490573	30.566740	70.871974	22.151823	123.590538
	10.441317	30.885313	72.926020	23.107848	126.919181
	10.613714	30.885313	75.138069	22.151823	128.175205
	10.392061	30.566740	71.819995	22.151823	124.538558
	10.761483	31.522459	73.084023	23.267186	127.873668
	10.145780	34.867475	72.926020	25.975924	133.769419
	10.589086	29.929594	71.345985	22.151823	123.427402
	10.145780	30.726026	70.397964	21.036461	122.160451
	10.539830	28.973875	71.187981	21.514474	121.676330
	10.293548	29.929594	70.713971	22.311161	122.954725
	10.761483	30.566740	71.661992	24.541886	126.770618
	10.244292	30.407453	72.452009	22.311161	125.170624
	10.761483	31.363172	71.187981	21.195799	123.746952
	10.096523	31.841032	75.928086	23.107848	130.876967
	10.662970	32.318891	73.558034	23.745199	129.622123
	10.268920	32.000318	71.661992	23.904536	127.566846
	10.687598	30.407453	71.977998	22.789174	125.174625
	9.776358	31.044600	71.503988	23.267186	125.815774
	10.342805	31.044600	70.397964	22.629836	124.072399
	9.998011	33.115324	73.084023	23.107848	129.307195
	10.638342	32.000318	72.136002	21.992486	126.128807
	9.850242	31.522459	72.768016	23.267186	127.557661
	10.318176	35.186048	74.980065	26.294599	136.460712
	9.825614	29.133161	71.503988	21.833149	122.470298
	10.318176	29.451735	69.607946	20.877123	119.936804
	9.776358	30.248167	70.397964	22.470499	123.116629
	10.392061	32.478178	72.768016	22.948511	128.194705
	10.047267	31.363172	71.187981	22.629836	125.180989
	10.465945	30.566740	71.187981	21.992486	123.747207
	10.145780	34.389616	74.822062	26.453936	135.665614
	10.441317	30.885313	72.926020	23.267186	127.078519
	10.170408	31.363172	74.664058	22.151823	128.179054
	10.318176	31.681745	72.768016	23.107848	127.557610
	10.342805	33.115324	72.294006	22.948511	128.357841
	10.613714	35.186048	75.928086	27.887974	139.002108
	10.416689	31.044600	72.294006	22.948511	126.287116
	10.342805	30.088881	71.187981	23.904536	125.181398
	10.145780	29.770307	72.452009	23.107848	125.330165
	10.342805	33.115324	75.296072	23.904536	132.315932
	10.096523	29.770307	71.503988	20.558449	121.832744
	10.293548	32.159605	74.348051	23.585861	130.093517
	10.342805	32.478178	74.032044	26.294599	132.804821
	10.441317	28.177443	67.869908	19.921099	115.968449
	10.293548	32.159605	71.345985	22.151823	125.657413
	10.342805	28.814589	70.239960	20.239773	119.294322
	10.539830	28.018156	68.817928	20.239773	117.075858
	10.170408	30.248167	71.977998	24.223211	126.449377
	10.441317	30.407453	72.452009	22.470499	125.329961
	10.392061	30.726026	71.819995	23.585861	126.131883
	10.416689	32.637465	76.876107	24.701224	134.214795
	10.071895	33.433897	71.029978	21.036461	125.500336
	10.465945	30.248167	72.136002	21.355136	123.739305
	10.170408	31.203886	72.452009	22.948511	126.604406
	10.515202	32.637465	73.874041	27.409961	133.921466
	10.244292	30.407453	70.713971	23.107848	124.229272
	10.564458	29.929594	70.871974	20.877123	121.678691
	9.874870	30.726026	70.239960	22.948511	123.914498
	10.786111	31.841032	71.819995	22.151823	125.812850
	9.924126	28.496015	71.503988	20.877123	120.877127
	10.539830	29.770307	70.871974	21.195799	121.838080
	9.998011	29.611021	69.765950	23.426524	122.803494
	10.564458	31.681745	72.136002	23.426524	127.244271
	9.702473	30.566740	71.661992	22.151823	124.380555
	10.515202	31.522459	71.503988	22.789174	125.815621
	10.170408	34.708189	72.452009	22.948511	130.108709
	10.416689	30.088881	73.558034	23.585861	127.232775
	10.293548	31.522459	72.294006	23.267186	127.083651
	10.219664	30.088881	75.138069	25.338573	130.565523
	10.564458	28.018156	70.081957	21.036461	119.136573
	10.441317	30.248167	71.187981	21.195799	122.631946
	10.293548	31.522459	72.136002	22.629836	126.288297
	10.342805	32.000318	71.661992	22.470499	126.132809
	10.564458	31.044600	71.187981	25.975924	128.208504
	9.850242	31.841032	73.084023	23.745199	128.670254
	10.687598	30.726026	68.817928	20.399111	119.943066
	10.096523	31.203886	73.242027	22.789174	127.235086
	10.638342	29.451735	71.661992	20.877123	121.990850
	10.441317	30.407453	71.187981	24.382548	125.977983
	10.835367	31.841032	72.136002	23.107848	127.084883
	10.244292	31.203886	71.977998	23.267186	126.449071
	10.392061	30.566740	71.029978	22.311161	123.907878
	9.850242	32.159605	70.713971	21.673811	124.547386
	10.318176	29.451735	71.503988	21.514474	122.470196
	9.973383	30.885313	71.661992	23.107848	125.655153
	10.293548	29.451735	71.661992	24.541886	125.655612
	9.603961	33.274610	75.612079	23.904536	132.791225
	10.195036	31.363172	72.768016	22.311161	126.442349
	9.850242	31.522459	73.242027	23.267186	128.031672
	10.367433	32.159605	72.136002	22.789174	127.084780
	10.121151	30.248167	71.503988	23.426524	125.178679
	10.342805	32.956038	72.136002	25.338573	130.430613
	10.195036	31.363172	72.768016	25.657249	129.788437
	10.244292	32.796751	71.503988	23.267186	127.567925
	10.367433	32.318891	74.506055	23.904536	130.729482
	10.145780	30.566740	72.926020	22.151823	125.644583
	10.465945	28.018156	70.713971	20.877123	119.609250
	10.515202	30.248167	71.345985	24.541886	126.136038
	10.539830	30.248167	71.187981	22.948511	124.384659
	9.924126	30.726026	72.136002	23.426524	126.288552
	10.465945	30.407453	69.607946	21.833149	121.848548
	9.800986	30.566740	72.452009	22.470499	125.489248
	10.515202	30.248167	71.977998	21.673811	123.899977
	9.924126	32.956038	72.768016	23.585861	129.309914
	10.047267	31.522459	75.928086	25.657249	133.107794
	9.800986	30.885313	72.452009	22.948511	126.285833
	10.392061	30.566740	74.032044	22.789174	127.387957
	9.899498	30.566740	72.610012	22.311161	125.487913
	10.515202	31.681745	71.977998	23.745199	127.404942
	9.751729	32.956038	72.768016	27.569299	133.293352
	10.170408	32.956038	70.871974	22.151823	125.979835
	9.850242	29.929594	70.555967	22.789174	123.274735
	9.899498	31.203886	72.136002	23.267186	126.607074
	10.244292	30.726026	74.348051	23.745199	128.819276
	10.170408	29.929594	71.819995	24.382548	126.132138
	10.539830	31.203886	75.612079	23.904536	130.720501
	10.392061	30.726026	71.661992	24.541886	126.929904
	10.441317	32.000318	71.187981	22.789174	125.977473
	10.244292	30.248167	71.503988	22.151823	123.903979
	10.392061	30.248167	71.187981	21.673811	123.109959
	10.490573	31.522459	72.452009	23.585861	127.560329
	10.441317	29.929594	71.345985	22.948511	124.224089
	10.121151	30.566740	74.980065	23.107848	128.654653
	10.465945	31.363172	72.768016	24.382548	128.513737
	10.022639	34.071043	72.610012	23.585861	130.266916
	10.490573	29.292448	70.713971	21.355136	121.361555
	9.776358	30.407453	71.029978	21.514474	122.951905
	10.416689	29.292448	69.923953	22.948511	122.164912
	9.751729	28.336729	69.607946	23.107848	121.052524
	10.318176	31.044600	70.871974	23.267186	125.183760
	9.653217	30.566740	71.819995	22.789174	125.175909
	10.515202	31.203886	72.768016	21.992486	125.964388
	9.653217	30.248167	71.503988	22.311161	124.063316
	10.416689	28.655302	72.610012	21.992486	123.257800
	9.554704	33.593183	73.874041	25.657249	133.124472
	10.244292	28.177443	69.765950	21.514474	119.457865
	9.554704	30.407453	70.871974	22.789174	124.068601
	10.121151	30.248167	71.503988	21.833149	123.585304
	9.825614	32.637465	71.029978	23.267186	126.934628
	10.293548	30.566740	72.294006	23.107848	125.968594
	10.022639	30.248167	71.187981	24.223211	125.659359
	10.268920	31.681745	72.136002	23.267186	127.084934
	10.195036	30.726026	74.348051	22.948511	128.022589
	10.268920	31.044600	72.768016	23.426524	127.239139
	10.244292	29.451735	70.081957	22.151823	121.685515
	10.293548	31.363172	70.871974	22.948511	125.183657
	10.342805	30.566740	71.661992	23.267186	125.495918
	9.973383	32.318891	72.768016	26.135261	131.222169
	10.367433	31.044600	71.187981	22.789174	125.021754
	10.441317	30.885313	74.348051	22.948511	128.181875
	10.441317	30.885313	71.661992	21.992486	124.539791
	9.948754	30.566740	73.558034	22.948511	127.073284
	10.638342	31.522459	71.503988	24.382548	127.408996
	9.800986	30.566740	71.661992	23.426524	125.655255
	10.441317	30.726026	71.503988	24.541886	126.771901
	9.751729	31.841032	73.558034	24.541886	129.940952
	10.342805	27.699583	69.607946	19.761761	117.069290
	9.333051	32.637465	74.032044	24.223211	130.892719
	10.638342	31.044600	75.296072	23.107848	129.448520
	9.702473	31.363172	71.661992	24.541886	127.567050
	10.145780	30.248167	72.610012	23.585861	126.444040
	9.702473	29.611021	71.029978	21.036461	121.677459
	10.268920	33.752470	72.610012	24.541886	130.904369
	9.456192	30.088881	71.029978	22.789174	123.908032
	10.121151	30.248167	71.661992	24.223211	126.133370
	9.702473	29.611021	70.081957	23.267186	122.960164
	9.825614	29.451735	71.187981	22.470499	123.110214
	9.998011	29.451735	72.136002	22.151823	123.739560
	9.998011	32.000318	73.242027	23.904536	129.146881
	10.096523	34.230329	75.454076	22.311161	131.995566
	10.121151	30.407453	72.294006	24.063874	126.765332
	10.219664	32.478178	73.716037	26.453936	132.648151
	10.244292	29.451735	71.661992	23.267186	124.380912
	10.318176	29.611021	71.345985	22.311161	123.268167
	10.096523	30.088881	70.081957	21.355136	121.525973
	10.441317	29.770307	71.187981	22.470499	123.428787
	10.170408	31.363172	69.765950	24.701224	125.830345
	10.589086	29.611021	71.661992	22.948511	124.221524
	10.145780	30.726026	73.084023	24.063874	127.873923
	10.539830	28.655302	70.555967	21.673811	120.885080
	9.998011	30.566740	70.713971	21.992486	123.273196
	10.441317	30.407453	71.187981	22.151823	123.747258
	9.800986	30.566740	71.503988	22.789174	124.859902
	10.515202	34.230329	70.871974	25.179236	130.281540
