LabVIEW Measurement	
Writer_Version	2
Reader_Version	2
Separator	Tab
Decimal_Separator	.
Multi_Headings	No
X_Columns	No
Time_Pref	Absolute
Operator	lvuser
Date	2021/05/25
Time	16:03:50.707773537
***End_of_Header***	
	
Channels	5					
Samples	2000	2000	2000	2000	2000	
Date	2021/05/25	2021/05/25	2021/05/25	2021/05/25	2021/05/25	
Time	16:03:50.7077735870585883855	16:03:50.707773537	16:03:50.707773537	16:03:50.707773537	16:03:50.707773537	
Y_Unit_Label	Volts	Volts	Volts	Volts	Volts	
X_Dimension	Time	Time	Time	Time	Time	
X0	0.0000000000000000E+0	0.0000000000000000E+0	0.0000000000000000E+0	0.0000000000000000E+0	0.0000000000000000E+0	
Delta_X	0.001000	0.001000	0.001000	0.001000	0.001000	
***End_of_Header***						
X_Value	cisnienieKomoraGorna	sila1	sila2	sila3	sila1 1	Comment
	7.682966	-1.768420	40.219295	3.987349	42.438224	Masa: 0.00 [kg]\09Pozycja Y 5.00 [m]\09Pozycja Z 2.71 [m]\0A
	7.609082	-3.998431	40.377299	3.668674	40.047542
	7.239660	-3.201998	41.167316	3.190661	41.155979
	7.756851	-3.042711	41.325320	3.031324	41.313932
	7.141147	-3.201998	41.799330	3.668674	42.266006
	7.732223	-2.405565	41.483323	3.668674	42.746431
	7.264288	0.143018	41.799330	3.349999	45.292347
	7.732223	-2.724139	41.799330	3.349999	42.425190
	7.190404	-3.839144	41.167316	3.828011	41.156183
	7.904619	-3.042711	41.641327	3.509336	42.107951
	7.141147	-3.998431	40.535302	4.624699	41.161570
	8.126273	-4.157717	38.797264	2.712649	37.352195
	6.796354	-2.405565	43.221362	5.740061	46.555857
	7.609082	-3.839144	40.693306	2.393974	39.248135
	6.771725	-2.724139	41.325320	6.058736	44.659917
	7.510569	-4.476290	41.483323	3.190661	40.197694
	6.747097	-4.954149	40.693306	3.190661	38.929817
	7.264288	-3.201998	39.429278	3.190661	39.417941
	6.944122	-1.768420	44.011379	2.712649	44.955608
	7.141147	-2.724139	41.325320	4.306024	42.907205
	7.067263	-3.679858	41.009313	2.553311	39.882766
	7.559826	-5.272723	40.061292	1.756624	36.545193
	7.067263	-4.635576	38.481257	1.278611	35.124291
	7.535197	-1.609133	41.325320	2.234636	41.950823
	7.091891	-2.564852	42.905355	3.668674	44.009176
	7.067263	-2.086993	42.273341	3.668674	43.855022
	6.845610	-3.201998	41.009313	3.031324	40.838638
	7.042635	-4.794863	40.693306	2.393974	38.292416
	6.894866	-3.042711	40.851309	3.828011	41.636609
	7.141147	-4.157717	43.853376	4.465361	44.161020
	6.894866	-2.246279	38.639260	1.756624	38.149605
	6.747097	-3.998431	40.061292	4.306024	40.368885
	6.894866	-2.564852	43.063358	5.580724	46.079230
	6.894866	-1.609133	41.799330	6.855424	47.045621
	6.550072	-3.520571	42.115337	3.349999	41.944765
	6.796354	-4.635576	41.799330	5.262049	42.425802
	6.623957	-2.724139	41.167316	3.349999	41.793176
	6.820982	-1.927706	41.325320	3.987349	43.384962
	6.697841	-2.405565	41.641327	3.828011	43.063772
	6.919494	-3.201998	40.219295	4.624699	41.641996
	6.870238	-3.520571	42.273341	3.031324	41.784093
	6.673213	-3.520571	41.167316	3.987349	41.634094
	6.968750	-4.476290	40.535302	2.393974	38.452986
	6.180650	-2.405565	41.483323	4.465361	43.543119
	6.599328	0.461591	41.799330	3.987349	46.248270
	6.205278	-1.609133	43.221362	4.784036	46.396265
	6.476188	-2.564852	41.641327	4.146686	43.223161
	5.983625	-3.042711	41.009313	3.509336	41.475937
	6.402303	-2.405565	41.483323	4.784036	43.861794
	5.811228	-3.679858	40.219295	3.190661	39.730099
	6.623957	-3.839144	41.957334	2.712649	40.830838
	5.934369	-1.449847	41.167316	3.031324	42.748793
	6.476188	-2.564852	41.483323	3.668674	42.587145
	6.057510	-2.883425	39.113271	1.119274	37.349119
	6.870238	-2.724139	41.641327	3.668674	42.585862
	6.229906	-3.520571	42.747351	3.668674	42.895454
	6.500816	-3.839144	40.219295	2.393974	38.774125
	6.057510	-3.839144	40.693306	1.756624	38.610785
	6.648585	-2.883425	39.271274	1.597286	37.985135
	6.131394	-4.157717	38.165250	0.959936	34.967469
	6.796354	-3.679858	42.747351	1.278611	40.346105
	6.451560	-3.361285	39.113271	1.597286	37.349272
	6.500816	-4.794863	39.271274	0.959936	35.436347
	6.402303	-4.954149	39.903288	1.597286	36.546425
	6.845610	-4.157717	38.323253	0.800599	34.966135
	6.426932	-0.812701	42.431344	3.509336	45.127980
	6.353047	-2.883425	40.219295	2.075299	39.411169
	6.328419	-3.201998	39.745285	1.915961	38.459248
	6.599328	-3.679858	39.903288	1.597286	37.820717
	6.106766	-3.839144	39.745285	2.553311	38.459452
	6.525444	-3.679858	39.587281	3.668674	39.576097
	6.131394	-1.290560	41.641327	4.624699	44.975465
	6.451560	-3.839144	39.587281	3.031324	38.779461
	6.722469	-2.405565	41.325320	3.509336	42.429090
	6.402303	-3.839144	37.533236	2.075299	35.769390
	6.254535	-3.998431	40.851309	2.393974	39.246852
	6.254535	-4.954149	40.061292	3.190661	38.297803
	6.254535	-2.405565	41.009313	3.668674	42.272421
	6.205278	-3.839144	40.377299	4.465361	41.003516
	6.229906	-2.724139	40.535302	3.349999	41.161162
	6.008253	-2.086993	41.799330	4.624699	44.337036
	6.180650	-0.334841	38.797264	2.393974	40.856396
	5.786600	-2.564852	40.693306	4.624699	42.753152
	6.082138	-0.971987	42.431344	4.465361	45.924718
	6.008253	-2.883425	38.797264	4.146686	40.060525
	5.885113	-4.317003	41.641327	2.553311	39.877634
	5.909741	-2.883425	40.535302	5.899399	43.551276
	6.106766	-4.317003	39.271274	1.756624	36.710894
	5.737344	-4.157717	38.165250	2.234636	36.242169
	5.983625	-2.246279	40.693306	3.828011	42.275038
	5.909741	-2.564852	39.429278	4.943374	41.807799
	6.057510	-3.201998	40.693306	2.234636	39.725944
	5.589575	-3.998431	40.219295	5.102711	41.323576
	6.156022	-2.724139	41.325320	3.668674	42.269855
	5.515691	-4.635576	38.797264	1.597286	35.758973
	6.082138	-2.564852	37.533236	1.119274	36.087657
	5.367922	-2.883425	42.115337	4.306024	43.537936
	5.909741	-1.449847	41.167316	3.668674	43.386143
	5.269409	-3.201998	40.693306	4.465361	41.956669
	5.811228	-4.317003	40.535302	2.393974	38.612272
	5.220153	-3.839144	39.113271	3.031324	38.305450
	5.712716	-3.839144	43.853376	2.553311	42.567543
	5.589575	-1.768420	40.219295	2.234636	40.685512
	5.983625	-3.201998	40.693306	3.190661	40.681969
	5.072384	-0.812701	41.325320	3.509336	44.021955
	5.860485	-3.520571	38.323253	2.553311	37.355993
	5.023128	-2.246279	43.695372	4.465361	45.914454
	5.737344	-2.086993	41.799330	3.828011	43.540349
	5.170897	-2.246279	41.957334	3.668674	43.379728
	5.811228	-4.954149	40.851309	2.393974	38.291133
	5.121641	-4.635576	37.849243	0.959936	34.173602
	6.008253	0.461591	44.643393	4.784036	49.889021
	5.269409	-3.042711	40.851309	2.553311	40.361909
	5.761972	-2.564852	41.483323	3.349999	42.268470
	5.515691	-1.768420	41.799330	3.349999	43.380909
	6.550072	-3.679858	40.377299	3.509336	40.206777
	7.387429	-1.768420	42.905355	3.509336	44.646271
	9.037514	-2.724139	41.167316	3.190661	41.633839
	8.865117	-0.653414	42.273341	2.871986	44.491913
	10.884624	-1.768420	42.273341	3.668674	44.173595
	12.017518	-0.016268	41.325320	3.031324	44.340375
	14.086281	0.302305	46.223428	3.349999	49.875732
	14.628100	-1.131274	41.641327	2.712649	43.222702
	15.884135	-2.564852	40.535302	0.959936	38.930386
	16.943144	1.417310	43.221362	3.668674	48.307346
	18.223807	3.806608	42.747351	3.668674	50.222633
	19.504470	2.532316	45.433411	3.828011	51.793738
	22.090425	4.284467	44.327386	3.668674	52.280527
	24.282329	7.788771	48.435477	7.652111	63.876359
	27.483986	5.080900	47.487456	5.421386	57.989742
	28.592252	8.107344	47.803463	6.855424	62.766230
	30.463991	11.770933	50.805530	9.086149	71.662611
	32.557383	13.363798	50.173516	7.970786	71.508100
	34.970940	14.000944	51.911554	7.811449	73.723946
	36.941191	19.098112	55.703638	10.042174	84.843924
	39.404005	19.735258	54.913621	10.520186	85.169064
	41.152603	23.080275	60.759750	11.316874	95.156898
	45.117734	27.540297	62.181782	13.388261	103.110339
	48.171624	33.115324	67.395897	16.575011	117.086232
	51.742705	36.141768	69.449943	16.734348	122.326059
	55.289157	42.672514	73.400030	18.965074	135.037618
	58.983379	50.955412	80.668191	21.833149	153.456751
	62.751486	56.849013	84.934286	26.294599	168.077897
	62.948511	64.972624	93.150468	32.190086	190.313178
	66.987528	72.618376	100.102621	35.058161	207.779159
	71.100429	80.741988	105.790748	40.794311	227.327046
	75.582752	92.051329	119.221045	47.167811	258.440185
	79.572513	100.493514	123.961150	52.903961	277.358625
	83.956325	114.988585	136.443427	59.596136	311.028148
	88.290881	123.430770	146.081640	66.925661	336.438071
	91.566426	137.925841	158.089906	74.255186	370.270933
	95.063625	149.075896	168.202130	82.700074	399.978100
	97.526442	159.429519	181.316421	87.798873	428.544813
	100.654218	173.287444	192.218662	97.040448	462.546555
	103.584970	184.118926	203.594914	101.183223	488.897064
	105.308942	201.321868	216.867208	112.177511	530.366587
	106.392581	208.967620	226.189415	117.116974	552.274008
	108.215066	220.436248	240.409730	125.880536	586.726514
	112.426483	228.719146	246.887873	128.429936	604.036955
	115.061697	236.683471	256.842094	133.050724	626.576288
	119.297743	244.010650	264.742269	137.512174	646.265092
	121.070972	258.983581	277.224545	147.709774	683.917899
	124.272635	266.629333	286.546752	150.418511	703.594596
	127.178760	275.230804	293.498906	157.110686	725.840396
	129.469181	284.310135	303.927137	163.484186	751.721457
	130.552821	293.548751	311.985315	169.220336	774.754402
	131.808858	298.805206	317.041427	173.363111	789.209744
	133.926882	311.229553	330.629728	180.692636	822.551917
	134.173164	320.149597	337.423879	188.181499	845.754974
	134.493330	331.299652	348.168117	194.873674	874.341442
	135.872509	339.901123	356.858309	201.247174	898.006606
	137.300943	348.343308	364.126470	206.823986	919.293764
	138.556981	359.334076	378.346785	216.543574	954.224435
	139.246570	368.094833	384.192915	222.598399	974.886146
	139.960788	376.537018	392.251093	228.015874	996.803985
	139.345083	387.527787	403.785349	235.186061	1026.499196
	136.956149	395.651398	409.631478	240.922211	1046.205087
	137.744251	405.049302	421.481741	246.499024	1073.030066
	133.852997	412.854340	426.221846	249.845111	1088.921297
	133.508203	418.110794	432.699989	253.350536	1104.161319
	130.774475	420.340806	436.808080	255.421924	1112.570809
	131.168525	426.234406	440.600164	256.855961	1123.690531
	130.158770	429.260850	443.128220	257.971324	1130.360393
	127.375786	431.650147	448.500339	259.086686	1139.237172
	126.218261	433.561585	448.816346	260.202048	1142.579980
	126.587684	434.198731	448.658343	260.202048	1143.059122
	122.302381	434.039445	449.764367	260.680061	1144.483872
	117.647656	432.287293	447.394315	260.839398	1140.521006
	115.110954	431.809434	449.764367	260.839398	1142.413199
	110.702511	429.579423	446.288290	259.405361	1135.273074
	107.845643	428.145844	444.076241	258.449336	1130.671421
	104.643981	424.800827	442.338203	257.652648	1124.791678
	100.974385	421.933671	438.388115	257.971324	1118.293109
	97.255532	418.429367	437.282091	255.740599	1111.452057
	94.817344	413.332200	432.067975	255.740599	1101.140773
	93.979986	406.801453	425.747835	248.570411	1081.119699
	91.073863	399.474274	418.953685	246.817699	1065.245657
	86.172859	394.536392	412.633545	242.356249	1049.526186
	83.513018	388.961365	409.631478	240.284861	1038.877704
	78.193337	381.634186	401.257293	234.389374	1017.280852
	75.582752	372.714142	393.515121	230.724611	996.953874
	70.558609	364.590530	387.510988	225.466474	977.567992
	67.578603	356.785492	378.346785	221.005024	956.137301
	63.982893	347.228302	372.500656	213.675499	933.404456
	60.756606	336.396820	359.386365	208.098686	903.881871
	56.988499	327.158203	350.854176	199.653799	877.666178
	53.934609	320.786743	342.321987	195.829699	858.938429
	50.831463	309.158828	332.999781	188.500174	830.658783
	50.215760	297.053055	324.941602	182.923361	804.918018
	46.176744	286.380859	312.775333	174.478474	773.634665
	41.817563	276.345809	303.927137	170.335699	750.608645
	39.108468	263.125030	291.918871	160.297436	715.341337
	35.389619	255.160705	282.596664	155.198636	692.956005
	32.434242	246.718521	272.484440	149.462486	668.665447
	29.478865	234.772033	266.164300	143.248324	644.184657
	26.966795	223.462692	253.366017	136.556149	613.384857
	24.282329	211.516204	242.463775	128.270599	582.250578
	21.721002	201.481155	232.825562	123.649811	557.956527
	19.233561	192.083251	222.713338	117.116974	531.913562
	16.893888	181.570342	214.813163	110.902811	507.286316
	15.859506	174.880309	205.016946	105.166661	485.063916
	14.406447	162.296676	196.326753	100.227198	458.850627
	11.845121	151.465193	186.846543	93.535024	431.846760
	10.244292	143.341582	177.524337	89.392249	410.258167
	8.200157	132.828673	172.942235	81.903386	387.674294
	6.870238	123.430770	161.407980	79.194648	364.033397
	5.515691	116.422164	154.297822	73.458498	344.178484
	4.579822	109.094985	146.081640	68.837711	324.014336
	2.806596	99.856368	137.391448	63.579574	300.827389
	2.387918	92.847762	133.757367	60.870836	287.475965
	1.008743	83.927717	124.119154	54.019324	262.066194
	1.649074	76.122679	118.747034	51.151249	246.020962
	0.319155	70.866225	112.900905	47.327149	231.094278
	0.885602	64.813338	105.790748	45.096424	215.700509
	0.516180	57.167586	103.894706	40.953649	202.015940
	1.033371	53.185423	96.468541	37.926236	187.580200
	0.860974	49.681120	92.834461	34.580149	177.095729
	1.821471	43.787519	88.568366	33.305449	165.661334
	1.550562	39.008924	83.196247	30.756049	152.961220
	2.387918	35.186048	82.722237	28.047311	145.955596
	1.821471	30.088881	76.086090	25.338573	131.513544
	2.264777	29.133161	78.930153	25.019899	133.083213
	1.575190	25.628858	72.926020	23.426524	121.981402
	1.279652	25.788145	70.239960	22.311161	118.339266
	0.614693	19.416685	67.711904	20.399111	107.527700
	1.353536	18.142393	65.657859	20.877123	104.677375
	0.565436	19.575972	68.027911	22.311161	109.915044
	1.452049	13.204512	62.655792	17.849711	93.710014
	1.057999	10.018782	59.179715	16.575011	85.773508
	2.190893	10.974500	60.601747	17.371699	88.947946
	1.846099	11.133787	58.389698	15.459649	84.983133
	2.461802	8.266630	55.861642	15.459649	79.587920
	2.067752	6.355192	54.755617	13.228924	74.339733
	2.117009	5.718046	52.701572	14.503624	72.923241
	1.353536	4.443754	51.911554	12.432236	68.787544
	1.624446	3.169462	50.805530	12.591574	66.566565
	0.688577	3.328748	50.173516	10.679524	64.181788
	1.673702	5.399473	50.173516	12.113561	67.686550
	1.156511	2.054456	46.697439	7.970786	56.722681
	1.673702	3.806608	50.489523	11.635549	65.931679
	1.230396	1.258024	46.223428	7.492774	54.974226
	2.166265	-1.768420	44.327386	7.811449	50.370415
	1.673702	-0.812701	44.011379	5.262049	48.460727
	2.338662	-1.449847	42.747351	6.377411	47.674916
	1.649074	-0.334841	45.275407	5.580724	50.521290
	2.092380	-2.564852	39.429278	4.784036	41.648462
	1.279652	0.461591	40.693306	3.031324	44.186221
	1.772215	-2.246279	40.851309	4.306024	42.911054
	1.107255	-3.042711	39.113271	2.393974	38.464533
	1.525933	-2.086993	40.535302	3.349999	41.798308
	1.230396	-3.839144	38.955267	0.641261	35.757384
	1.722958	-3.201998	38.955267	3.349999	39.103268
	1.279652	-3.839144	36.743218	-0.792777	32.111298
	2.289405	-1.609133	37.059225	-0.792777	34.657316
	1.550562	-4.317003	34.215162	-1.908139	27.990020
	2.461802	-3.998431	39.113271	-1.748802	33.366039
	1.673702	-3.520571	35.637194	-1.908139	30.208484
	2.117009	-2.086993	37.375232	-0.792777	34.495463
	1.649074	-4.157717	33.741152	-3.342177	26.241258
	2.067752	-5.113436	31.371099	-4.616877	21.640787
	1.747587	-0.175555	36.743218	-2.226814	34.340850
	2.314034	-3.201998	34.373166	-4.298202	26.872966
	1.870727	-3.839144	35.163183	-2.386151	28.937888
	2.560315	-2.883425	34.847176	-3.660852	28.302900
	2.190893	-4.157717	32.635127	-3.820189	24.657221
	3.028249	-2.564852	39.587281	-1.908139	35.114290
	2.683456	-3.042711	34.531169	-2.704827	28.783631
	3.249903	-0.812701	34.689173	-3.342177	30.534296
	2.584943	-1.131274	36.585215	-1.111452	34.342490
	3.003621	-2.405565	33.899155	-3.660852	27.832738
	2.634199	-3.042711	36.427211	-2.704827	30.679673
	2.880481	-3.361285	36.269208	-3.023502	29.884422
	2.732712	-2.086993	36.585215	-1.908139	32.590083
	3.299159	-3.839144	35.321187	-3.979527	27.502516
	3.028249	-3.361285	35.795197	-0.792777	31.641136
	3.422299	-1.768420	38.955267	-2.704827	34.482021
	3.077506	-0.653414	37.691239	-1.270789	35.767036
	3.471556	-1.449847	37.849243	-2.386151	34.013245
	2.954365	-2.086993	38.007246	-0.792777	35.127477
	3.373043	-0.175555	37.217229	-0.952114	36.089560
	3.003621	0.143018	41.483323	-0.474102	41.152240
	3.274531	1.258024	40.851309	1.119274	43.228607
	2.461802	0.780165	41.009313	0.959936	42.749413
	3.151390	2.691602	41.325320	0.641261	44.658183
	2.584943	-0.175555	39.271274	-0.474102	38.621618
	3.471556	-0.494128	42.431344	0.959936	42.897153
	2.732712	2.054456	41.641327	2.553311	46.249094
	3.373043	-0.175555	41.483323	1.119274	42.427042
	2.683456	0.461591	43.379365	3.349999	47.190955
	3.397671	0.461591	40.219295	1.597286	42.278173
	2.806596	2.054456	43.221362	3.349999	48.625817
	3.077506	-0.016268	41.799330	1.756624	43.539686
	2.363290	-1.609133	41.167316	2.712649	42.270832
	2.757340	0.620878	42.589348	2.393974	45.604199
	2.141637	-0.016268	42.431344	4.943374	47.358450
	2.806596	-0.016268	42.747351	2.712649	45.443732
	2.166265	-0.016268	41.641327	4.146686	45.771745
	2.880481	0.302305	40.693306	0.322586	41.318197
	2.166265	0.461591	43.537369	4.943374	48.942334
	2.658827	0.461591	42.273341	3.349999	46.084930
	2.363290	-0.653414	44.011379	3.668674	47.026639
	2.757340	-1.768420	41.957334	2.393974	42.582888
	2.092380	-0.812701	42.589348	4.624699	46.401346
	2.240149	-0.175555	44.327386	3.828011	47.979843
	2.240149	-1.927706	41.641327	3.668674	43.382294
	2.412546	-3.520571	42.273341	0.641261	39.394030
	1.870727	1.895170	41.957334	5.580724	49.433227
	2.757340	0.143018	44.485390	4.943374	49.571782
	1.944612	-2.086993	43.853376	5.740061	47.506444
	2.387918	-3.520571	40.377299	1.597286	38.454014
	2.166265	-1.609133	43.853376	5.102711	47.346954
	2.289405	-3.201998	43.063358	3.031324	42.892684
	1.993868	-0.016268	44.327386	6.696086	51.007204
	2.141637	-0.334841	43.379365	3.987349	47.031873
	1.969240	-3.042711	41.799330	2.712649	41.469267
	1.895355	-3.201998	40.377299	2.553311	39.728612
	2.166265	-3.042711	43.853376	3.190661	44.001325
	1.772215	-3.361285	41.325320	2.553311	40.517346
	1.919983	-2.883425	42.589348	2.553311	42.259234
	1.501305	-2.405565	42.589348	3.828011	44.011793
	2.240149	-0.016268	41.009313	3.031324	44.024368
	1.279652	-3.998431	42.431344	1.915961	40.348875
	1.895355	-2.564852	43.063358	3.987349	44.485855
	1.427421	-2.883425	42.589348	3.349999	43.055921
	2.141637	-4.794863	41.799330	1.756624	38.761091
	1.328908	-4.317003	41.167316	3.349999	40.200311
	1.895355	-3.042711	44.643393	2.075299	43.675980
	1.624446	-1.768420	41.641327	2.712649	42.585556
	2.190893	-4.157717	41.009313	1.437949	38.289544
	1.796843	-2.405565	41.957334	3.031324	42.583092
	2.314034	-4.635576	39.587281	0.800599	35.752303
	2.067752	-5.750582	41.957334	1.756624	37.963375
	2.363290	-5.750582	39.113271	-0.474102	32.888587
	1.969240	-5.113436	40.693306	1.597286	37.177156
	2.412546	-6.069155	40.693306	0.641261	35.265412
	1.919983	-4.476290	39.429278	1.756624	36.709611
	2.708084	-3.520571	41.799330	0.003911	38.282670
	2.314034	-3.520571	40.693306	1.915961	39.088696
	2.560315	-4.317003	41.167316	0.959936	37.810249
	2.437174	-3.361285	41.167316	1.915961	39.721993
	2.289405	-4.635576	38.481257	0.481924	34.327604
	2.314034	-4.635576	40.851309	-0.792777	35.422956
	2.240149	-3.520571	39.745285	0.800599	37.025312
	2.289405	-2.246279	40.061292	-0.314764	37.500249
	2.240149	-4.476290	40.061292	0.481924	36.066925
	2.609571	-3.520571	41.009313	0.163249	37.651990
	2.387918	-2.724139	42.431344	1.278611	40.985817
	2.092380	-1.131274	41.957334	2.871986	43.698046
	2.215521	-4.317003	41.325320	1.119274	38.127590
	2.412546	-2.724139	41.325320	-0.633439	37.967742
	2.018496	-1.609133	39.587281	0.800599	38.778747
	2.486431	-2.564852	41.799330	2.393974	41.628452
	2.215521	-3.201998	41.799330	0.800599	39.397931
	2.486431	-2.564852	41.641327	3.031324	42.107798
	1.993868	-2.564852	41.167316	0.959936	39.562400
	2.584943	-2.724139	40.693306	2.553311	40.522478
	2.240149	-1.768420	41.641327	1.278611	41.151518
	2.880481	0.939451	40.377299	1.756624	43.073373
	2.289405	-2.086993	41.325320	0.481924	39.720251
	3.077506	-1.290560	42.273341	2.712649	43.695429
	2.092380	-1.609133	40.219295	0.800599	39.410761
	2.757340	-2.246279	43.537369	2.553311	43.844401
	2.067752	-2.086993	41.325320	0.800599	40.038926
	2.806596	-0.016268	44.327386	4.465361	48.776479
	2.215521	-1.927706	42.431344	0.959936	41.463574
	2.905109	-2.883425	40.535302	1.278611	38.930488
	2.387918	-1.290560	41.325320	-1.270789	38.763971
	2.880481	-2.086993	41.009313	2.871986	41.794306
	2.387918	-3.361285	40.377299	0.003911	37.019925
	2.954365	0.939451	42.589348	2.712649	46.241447
	2.215521	-2.246279	41.483323	0.959936	40.196980
	3.077506	-4.317003	40.535302	0.641261	36.859560
	2.511059	-0.334841	44.169383	1.278611	45.113153
	2.781968	-0.971987	41.799330	2.075299	42.902642
	2.634199	-3.839144	40.377299	-0.952114	35.586041
	2.781968	-3.361285	41.483323	0.481924	38.603962
	2.215521	0.461591	43.063358	3.349999	46.874948
	2.855852	-4.954149	42.905355	-1.270789	36.680416
	2.338662	-3.679858	40.535302	-0.314764	36.540681
	2.806596	-0.334841	43.853376	2.075299	45.593833
	2.363290	-0.175555	41.957334	0.641261	42.423040
	2.708084	-1.290560	41.799330	2.075299	42.584069
	2.412546	-2.564852	43.853376	1.278611	42.567135
	2.535687	-1.609133	42.905355	1.119274	42.415495
	2.486431	-0.812701	44.327386	3.509336	47.024022
	2.363290	-2.405565	43.537369	2.553311	43.685114
	2.092380	-0.334841	42.747351	3.349999	45.762509
	2.289405	-0.016268	46.381432	1.597286	47.962450
	2.166265	-0.494128	44.011379	3.031324	46.548575
	2.117009	-0.971987	43.537369	2.393974	44.959355
	2.067752	-1.927706	42.747351	2.234636	43.054281
	2.067752	-2.405565	42.589348	2.075299	42.259081
	2.240149	-1.768420	44.485390	2.712649	45.429619
	1.969240	-1.768420	43.379365	2.553311	44.164257
	2.190893	-4.317003	42.273341	1.437949	39.394286
	1.821471	0.461591	44.327386	4.306024	49.095001
	2.264777	-0.016268	42.115337	3.509336	45.608405
	1.944612	-1.768420	46.065425	1.915961	46.212966
	2.067752	-4.157717	41.009313	0.481924	37.333519
	1.452049	-1.449847	42.905355	1.597286	43.052794
	2.240149	-1.609133	43.379365	3.668674	45.438906
	1.501305	-1.131274	41.641327	2.712649	43.222702
	1.870727	-3.201998	42.905355	-0.314764	39.388593
	1.722958	-0.016268	42.431344	2.393974	44.809050
	2.240149	-1.768420	42.589348	1.915961	42.736889
	1.747587	-3.679858	43.063358	2.234636	41.618137
	2.387918	-2.405565	41.641327	0.959936	40.195697
	1.870727	-2.405565	43.537369	3.031324	44.163127
	2.363290	-3.839144	41.167316	1.756624	39.084796
	1.772215	-2.724139	41.957334	1.756624	40.989819
	2.412546	-1.131274	42.905355	2.393974	44.168055
	1.772215	-1.927706	41.641327	2.871986	42.585607
	2.363290	-3.839144	42.273341	2.712649	41.146845
	1.649074	-2.086993	42.589348	2.871986	43.374341
	2.461802	-3.839144	41.167316	2.075299	39.403471
	1.501305	-2.246279	42.589348	3.031324	43.374392
	2.486431	-3.042711	40.693306	2.393974	40.044568
	1.846099	-0.175555	41.957334	1.597286	43.379065
	2.461802	-2.564852	40.219295	2.393974	40.048417
	1.722958	-2.086993	42.273341	2.234636	42.420984
	2.412546	-4.157717	40.693306	1.278611	37.814200
	2.043124	-3.520571	39.903288	1.915961	38.298678
	2.584943	-3.839144	42.589348	1.756624	40.506827
	1.796843	-2.564852	41.641327	2.393974	41.470448
	2.535687	-2.246279	41.799330	3.668674	43.221725
	2.166265	-0.812701	43.537369	3.349999	46.074667
	2.560315	1.576597	42.747351	5.262049	49.585997
	1.919983	-2.564852	41.957334	1.915961	41.308443
	2.658827	-4.476290	40.535302	3.828011	39.887023
	2.018496	-3.520571	41.009313	1.119274	38.608015
	2.560315	-3.520571	41.641327	3.828011	41.948767
	1.969240	-1.927706	42.747351	3.349999	44.169644
	2.683456	-1.927706	41.799330	3.668674	43.540298
	2.264777	-0.494128	43.853376	3.509336	46.868584
	2.486431	-3.361285	40.693306	2.712649	40.044670
	2.314034	-2.724139	42.115337	2.393974	41.785172
	2.461802	-2.086993	42.431344	3.031324	43.375675
	2.387918	-2.246279	41.641327	3.031324	42.426371
	2.683456	-2.246279	44.801397	3.190661	45.745779
	2.461802	-2.086993	42.115337	2.553311	42.581656
	2.363290	-0.334841	42.431344	1.915961	44.012464
	2.314034	-1.449847	42.589348	3.190661	44.330162
	2.363290	-2.405565	41.009313	2.712649	41.316396
	2.338662	-2.086993	43.537369	2.712649	44.163025
	2.658827	-3.520571	41.167316	1.915961	39.562706
	3.200646	-2.086993	45.275407	4.146686	47.335101
	3.176018	-1.768420	42.747351	2.234636	43.213568
	3.570068	0.939451	41.957334	2.712649	45.609433
	3.964118	-1.609133	45.117404	1.119274	44.627544
	4.284284	-0.175555	43.379365	2.871986	46.075797
	4.284284	0.620878	44.485390	3.509336	48.615603
	4.998500	-0.971987	43.695372	2.553311	45.276696
	4.826103	3.169462	45.591414	5.102711	53.863587
	5.909741	1.895170	46.855442	4.146686	52.897298
	5.983625	1.417310	45.591414	3.349999	50.358723
	7.018007	1.895170	44.959400	2.393974	49.248544
	6.550072	5.718046	47.171449	3.668674	56.558169
	7.559826	5.718046	47.171449	4.784036	57.673531
	7.510569	5.240187	52.227561	4.306024	61.773771
	8.446438	8.585203	51.121537	7.014761	66.721501
	8.668092	7.470198	50.331519	4.943374	62.745090
	9.505448	8.585203	50.805530	4.624699	64.015431
	9.899498	9.381636	50.015512	4.943374	64.340521
	11.032392	13.523085	56.493656	6.855424	76.872164
	11.426442	12.567366	54.755617	7.174099	74.497081
	12.805618	15.434522	59.021712	9.723499	84.179733
	13.027271	14.478804	57.757684	7.970786	80.207273
	14.800497	16.390241	58.547701	8.130124	83.068066
	15.194547	18.301680	61.391764	10.998199	90.691642
	16.081160	20.372404	61.549768	10.201511	92.123683
	16.918516	23.239561	64.235827	11.794886	99.270274
	18.740998	23.876707	65.973866	12.272899	102.123471
	19.898520	25.469572	66.605880	12.591574	104.667025
	21.573234	29.133161	71.187981	16.893686	117.214829
	22.755384	29.133161	71.661992	14.344286	115.139439
	25.119685	31.522459	72.610012	15.778324	119.910795
	26.080183	33.593183	74.506055	15.459649	123.558886
	28.444484	37.893919	74.980065	16.256336	129.130320
	29.478865	39.008924	78.614146	17.849711	135.472781
	32.138704	42.035368	80.984198	20.239773	143.259340
	32.976061	43.946806	83.354251	19.602424	146.903480
	33.985815	46.813963	86.988331	23.585861	157.388155
	35.217222	50.955412	88.884373	24.223211	164.062996
	37.704664	53.822569	92.676457	25.338573	171.837599
	38.517392	58.601164	94.414496	26.613274	179.628933
	41.595910	61.149748	97.100555	28.843999	187.094302
	42.507151	67.361922	101.998664	31.393399	200.753984
	44.649799	71.184798	103.420695	33.305449	207.910941
	45.856578	71.503371	105.474741	33.783461	210.761572
	48.220880	75.963392	111.004863	36.332861	223.301117
	49.600056	79.467696	112.426895	35.536174	227.430764
	51.890473	87.909880	117.799014	40.953649	246.662542
	53.097253	93.007048	124.277157	44.140399	261.424604
	55.018248	96.511351	125.225178	45.574436	267.310965
	54.968992	103.679243	135.337402	49.239199	288.255844
	57.160897	104.634963	134.547385	49.239199	288.421546
	58.269163	112.440001	141.973549	52.585286	306.998836
	60.756606	118.652175	147.345668	54.975349	320.973191
	61.273797	129.165084	153.823812	60.074149	343.063044
	63.687356	134.580825	162.514004	63.101561	360.196390
	64.426200	141.589430	165.832078	67.084999	374.506507
	66.076286	148.438750	173.416246	70.590423	392.445419
	66.790502	153.376632	178.156351	73.617836	405.150818
	67.972654	161.022384	183.212463	78.238624	422.473470
	68.883895	169.464568	194.114704	84.293449	447.872721
	69.228689	172.491012	193.640694	83.337424	449.469129
	69.401086	178.543898	201.066858	89.073574	468.684330
	70.287700	184.756072	206.280974	91.463636	482.500682
	70.484725	188.897521	210.231061	94.331711	493.460293
	71.026544	192.561110	217.815229	96.562436	506.938775
	72.011670	199.251144	220.343285	101.023886	520.618314
	71.592992	202.596160	225.241394	101.979911	529.817465
	73.144565	206.419036	229.665492	104.688649	540.773176
	72.528862	210.241912	230.139502	105.325998	545.707413
	73.169194	216.931945	237.407663	108.831424	563.171032
	72.602746	217.569091	239.303705	110.265461	567.138257
	72.381093	218.206237	241.673758	111.858836	571.738830
	71.666876	222.825546	245.149835	113.292873	581.268254
	71.839273	224.418410	246.571866	115.364261	586.354538
	71.691504	224.736984	248.467908	116.320286	589.525178
	71.248198	227.922714	249.731936	117.116974	594.771623
	71.322082	231.267730	252.101989	119.188361	602.558080
	70.854147	233.179168	255.420062	121.419086	610.018316
	70.066046	231.108444	253.840027	120.622399	605.570869
	69.228689	233.179168	254.472041	122.215774	609.866983
	68.588357	233.338455	257.000097	123.171799	613.510350
	67.603231	235.568466	257.316104	124.765174	617.649743
	65.854633	235.090606	257.632111	125.243186	617.965903
	65.140416	236.364898	256.368083	123.968486	616.701467
	63.810496	235.249893	256.526087	125.561861	617.337840
	62.603717	233.657027	260.160167	127.792586	621.609781
	61.520079	234.294173	255.578066	125.721199	615.593438
	61.963385	233.497741	256.210080	126.836561	616.544382
	59.525199	232.382735	255.420062	125.243186	613.045984
	59.722224	230.949157	251.943985	125.402524	608.295666
	56.988499	231.427017	254.156034	123.649811	609.232862
	56.446680	226.966994	249.257926	122.375111	598.600031
	54.107006	224.099838	247.835894	119.347699	591.283430
	53.368162	223.462692	246.729870	121.419086	591.611647
	50.388157	219.958388	244.043810	117.754324	581.756522
	50.018734	216.772659	243.569800	116.798299	577.140757
	46.866332	213.905502	237.407663	114.089561	565.402726
	46.890960	213.905502	236.617646	115.682936	566.206083
	44.378890	209.923339	234.405597	112.655524	556.984459
	44.428146	206.419036	228.559467	112.018174	546.996677
	42.162357	200.684722	228.085457	107.716061	536.486240
	41.497397	196.543273	222.713338	107.716061	526.972672
	38.665161	193.198256	220.027278	105.644674	518.870208
	37.827804	188.419661	215.287173	102.617261	506.324095
	35.808297	185.871078	211.179082	99.908524	496.958683
	34.897056	179.977477	206.280974	97.199786	483.458237
	32.261845	175.676742	203.910921	94.969061	474.556724
	31.030438	169.305282	198.064792	91.622974	458.993047
	29.060187	165.004546	194.746718	90.029599	449.780863
	27.853408	158.792372	188.742585	85.408811	432.943769
	26.203323	154.810210	184.002480	84.134111	422.946801
	25.095057	151.943053	181.158417	80.469349	413.570819
	24.479354	143.819442	174.838277	77.601274	396.258992
	23.321831	139.837279	171.362200	74.892536	386.092015
	21.671746	134.262252	166.464092	73.299161	374.025504
	20.563480	130.120802	162.039994	71.068436	363.229232
	18.740998	123.271483	160.617962	68.200361	352.089806
	17.411079	119.767180	152.717787	64.854274	337.339240
	16.376697	116.262877	148.609696	63.579574	328.452147
	14.677356	109.094985	143.553584	59.914811	312.563380
	14.061653	105.909255	137.549451	58.162099	301.620804
	12.436196	100.493514	136.285423	54.975349	291.754285
	11.869749	93.484908	129.807280	52.744624	276.036811
	10.367433	91.573470	127.437227	50.195224	269.205920
	10.465945	85.520583	122.381115	47.964499	255.866196
	9.456192	80.104842	116.376982	45.415099	241.896922
	9.283795	76.441252	116.218979	43.025036	235.685267
	7.929248	73.733382	108.950817	39.838286	222.522485
	7.633710	68.954786	105.948751	38.722924	213.626461
	6.623957	65.450484	102.788681	36.492199	204.731363
	6.328419	59.238310	95.678523	33.146111	188.062945
	5.170897	56.211866	97.258559	32.986774	186.457199
	5.072384	54.141142	92.518454	31.074724	177.734319
	4.284284	50.796125	89.042377	29.162674	169.001176
	4.456681	45.858244	82.248226	22.470499	150.576968
	3.397671	44.583952	83.196247	27.250623	155.030822
	4.136515	39.805357	81.616212	24.223211	145.644780
	3.176018	36.301054	74.980065	21.992486	133.273605
	3.176018	30.885313	72.294006	20.558449	123.737767
	2.954365	28.655302	72.136002	19.283748	120.075052
	2.757340	25.150999	64.867841	16.096999	106.115839
	2.215521	27.221723	68.027911	16.415674	111.665308
	2.289405	23.080275	63.919820	17.053024	104.053118
	2.190893	21.168837	62.813796	14.662961	98.645593
	2.264777	17.983107	59.811729	14.662961	92.457797
	1.969240	16.230955	58.705705	12.432236	87.368896
	1.846099	15.434522	56.651659	14.344286	86.430468
	1.821471	13.682371	55.229628	10.042174	78.954172
	1.698330	16.708815	56.177649	13.866274	86.752737
	1.895355	10.974500	53.491589	9.564161	74.030251
	1.599818	10.178068	52.227561	11.635549	74.041178
	1.895355	8.425916	52.069558	8.448799	68.944273
	1.181140	8.903776	51.595547	11.635549	72.134872
	1.969240	7.470198	50.015512	8.448799	65.934508
	1.328908	2.373029	45.117404	5.899399	53.389832
	1.870727	5.558759	47.645460	7.492774	60.696993
	1.205768	4.284467	47.171449	8.130124	59.586040
	1.796843	7.151625	44.959400	5.899399	58.010423
	1.427421	3.169462	45.275407	7.492774	55.937643
	2.412546	2.532316	44.801397	5.102711	52.436424
	1.673702	1.735883	43.221362	6.696086	51.653331
	2.560315	-2.086993	42.589348	1.915961	42.418316
	1.846099	-3.201998	41.009313	2.234636	40.041951
	2.338662	0.461591	42.115337	3.349999	45.926927
	1.993868	3.806608	43.379365	6.536749	53.722722
	2.831224	-0.971987	40.219295	2.075299	41.322607
	2.264777	-0.812701	39.745285	2.393974	41.326558
	2.855852	-2.246279	42.431344	0.959936	41.145001
	3.052878	-1.131274	40.377299	1.597286	40.843311
	3.373043	-1.131274	40.377299	2.234636	41.480661
	3.225274	1.258024	42.431344	2.871986	46.561354
	3.914862	1.258024	38.007246	1.119274	40.384544
	3.446928	0.461591	42.747351	2.234636	45.443579
	3.570068	-0.971987	40.693306	2.553311	42.274630
	3.594696	0.620878	42.115337	2.234636	44.970851
	3.742465	0.143018	42.589348	3.190661	45.923027
	3.594696	-0.494128	41.799330	2.553311	43.858514
	3.988747	2.213743	45.749418	3.828011	51.791172
	3.840978	2.213743	41.167316	1.915961	45.297020
	4.333540	1.735883	42.589348	3.349999	47.675230
	4.210400	4.603041	45.433411	5.899399	55.935850
	4.111887	3.010175	42.589348	4.784036	50.383559
	3.988747	2.532316	46.381432	4.784036	53.697784
	3.643953	4.125181	45.117404	5.899399	55.141983
	3.668581	4.125181	46.065425	5.102711	55.293317
	3.052878	3.647321	45.749418	6.058736	55.455475
	3.249903	5.399473	45.433411	5.899399	56.732282
	2.634199	6.673765	49.699505	6.536749	62.910019
	3.151390	5.399473	46.223428	5.899399	57.522300
	2.560315	4.125181	46.065425	5.740061	55.930667
	2.806596	4.125181	45.591414	4.784036	54.500631
	2.240149	4.284467	45.433411	6.855424	56.573302
	2.584943	4.125181	47.171449	6.058736	57.355366
	1.944612	3.965895	45.433411	4.624699	54.024004
	2.412546	7.629484	46.855442	6.218074	60.703000
	1.599818	3.328748	46.381432	5.580724	55.290904
	1.969240	3.169462	46.381432	7.333436	56.884330
	1.402793	3.488035	46.065425	6.855424	56.408883
	2.190893	2.373029	44.643393	6.536749	53.553171
	1.599818	1.098737	45.591414	7.652111	54.342263
	2.190893	2.691602	46.223428	6.377411	55.292442
	1.624446	4.125181	45.433411	8.448799	58.007390
	2.264777	3.488035	47.329453	7.492774	58.310261
	1.969240	3.328748	47.961467	10.520186	61.810401
	2.363290	-0.016268	43.695372	4.943374	48.622478
	1.944612	-2.086993	42.431344	4.943374	45.287725
	2.609571	-0.175555	43.221362	4.784036	47.829843
	2.141637	0.939451	43.063358	7.811449	51.814258
	2.806596	1.098737	44.327386	3.668674	49.094797
	2.166265	0.302305	44.485390	7.811449	52.599143
	2.584943	0.461591	45.275407	6.696086	52.433085
	2.437174	-0.016268	44.011379	7.014761	51.009872
	2.831224	-1.768420	43.221362	4.624699	46.077641
	2.757340	-2.564852	43.537369	6.058736	47.031253
	3.102134	-1.609133	42.905355	4.784036	46.080258
	3.249903	-0.016268	43.537369	6.855424	50.376524
	3.373043	-1.449847	42.431344	3.987349	44.968846
	3.176018	1.735883	42.747351	7.174099	51.657333
	3.742465	-0.494128	42.589348	4.784036	46.879256
	3.323787	-0.812701	44.801397	7.014761	51.003457
	4.087259	0.461591	45.117404	5.580724	51.159719
	4.087259	-0.653414	43.853376	6.536749	49.736710
	4.111887	-0.653414	45.117404	6.218074	50.682063
	4.259656	2.213743	47.329453	7.174099	56.717294
	4.579822	3.010175	45.433411	6.058736	54.502322
	4.727590	1.417310	45.433411	5.421386	52.272107
	4.973872	1.258024	45.907421	5.102711	52.268156
	5.072384	2.691602	45.591414	5.421386	53.704403
	5.023128	2.691602	49.699505	6.058736	58.449844
	5.638831	4.125181	46.223428	5.580724	55.929333
	5.614203	2.532316	46.223428	4.784036	53.539780
	6.303791	4.921613	46.697439	3.668674	55.287726
	6.032881	4.284467	46.065425	6.377411	56.727303
	6.993379	5.080900	51.595547	7.014761	63.691208
	6.623957	7.151625	50.173516	8.608136	65.933276
	7.510569	5.718046	49.541502	5.421386	60.680934
	7.436685	7.151625	51.911554	7.811449	66.874627
	8.249413	9.381636	51.279540	7.652111	68.313287
	8.077016	10.655928	54.597614	7.811449	73.064990
	8.815860	9.859495	51.753551	7.014761	68.627807
	8.298670	11.133787	54.281607	9.245486	74.660880
	9.456192	12.567366	55.703638	9.404824	77.675827
	9.160654	11.930219	54.123603	9.723499	75.777321
	10.293548	13.682371	58.073691	9.245486	81.001548
	10.342805	15.753096	58.231694	11.476211	85.461001
	11.475699	17.823820	58.863708	10.679524	87.367052
	11.180161	17.664534	60.601747	10.998199	89.264479
	12.707105	18.938826	59.811729	11.316874	90.067428
	12.460824	18.620252	63.919820	11.476211	94.016284
	13.519834	18.938826	61.865775	11.954224	92.758824
	13.889256	21.965269	64.235827	12.910248	99.111345
	14.874381	23.717420	65.973866	14.344286	104.035572
	14.406447	24.513853	64.551834	13.706936	102.772623
	15.465456	25.310286	69.291939	16.893686	111.495911
	15.687110	29.133161	69.449943	15.937661	114.520765
	16.647607	27.858870	70.081957	16.096999	114.037824
	16.992401	28.336729	71.503988	17.849711	117.690428
	18.125295	30.407453	72.294006	17.531036	120.232495
	19.159676	32.478178	73.084023	20.558449	126.120649
	19.553727	33.115324	76.086090	18.805736	128.007149
	19.997033	33.752470	75.138069	20.877123	129.767662
	21.450093	39.008924	78.456142	21.195799	138.660865
	21.573234	38.849638	80.036177	23.585861	142.471676
	22.927781	39.008924	79.878174	21.833149	140.720247
	23.223319	40.601790	83.038244	24.701224	148.341257
	23.592741	43.309660	83.512254	23.745199	150.567113
	24.109932	46.813963	86.040310	27.887974	160.742247
	25.095057	46.813963	86.830328	25.497911	159.142201
	25.538364	50.318266	87.778349	28.047311	166.143926
	26.400348	49.203260	91.728436	25.657249	166.588945
	27.188449	52.388990	92.518454	31.234061	176.141505
	27.853408	53.663283	92.834461	28.684661	175.182404
	28.641509	56.689726	95.520520	32.190086	184.400332
	29.404981	57.167586	96.152534	30.915386	184.235506
	29.897544	63.220472	102.472674	36.810874	202.504020
	30.020684	64.335478	100.734635	32.986774	198.056887
	31.128951	66.884062	103.578699	36.651536	207.114297
	31.843167	67.043349	103.736702	35.058161	205.838212
	32.212589	71.344084	106.580765	39.041599	216.966448
	32.261845	71.344084	110.688856	38.085574	220.118514
	32.754408	75.644819	111.636877	40.475636	227.757333
	33.616393	77.715544	113.690923	40.475636	231.882103
	33.936558	79.149123	112.900905	40.156961	232.206988
	34.429121	79.626982	113.532919	39.360274	232.520174
	35.192593	84.087004	119.379049	41.112986	244.579039
	35.611272	87.750594	121.907105	45.574436	255.232134
	36.029950	88.547026	123.487140	45.574436	257.608602
	36.177719	90.458464	125.225178	46.689799	262.373441
	36.571769	97.307784	130.281290	49.398536	276.987610
	36.670282	98.263503	129.965283	50.832574	279.061359
	38.024830	101.608519	133.283357	52.744624	287.636499
	36.990448	102.245665	135.021395	53.063299	290.330359
	37.556895	103.679243	137.549451	53.381974	294.610668
	37.507639	103.838530	137.391448	54.178661	295.408639
	37.901689	107.183547	141.183532	55.931374	304.298452
	37.458382	109.094985	142.605563	55.772036	307.472584
	38.123342	113.077147	143.711588	57.524749	314.313483
	37.655407	113.395720	145.765633	59.436799	318.598152
	38.320367	116.900023	149.241710	61.348849	327.490582
	37.483010	115.466444	146.397647	59.596136	321.460227
	38.369623	115.944304	149.083707	60.552161	325.580172
	37.384498	118.333602	151.611763	61.667524	331.612888
	38.369623	119.926467	153.823812	63.738911	337.489189
	37.162845	121.200759	153.507805	62.942224	337.650787
	38.172598	121.041472	153.823812	62.942224	337.807507
	37.753920	123.112197	153.823812	62.623548	339.559556
	37.877061	121.519332	153.981815	63.579574	339.080720
	37.335242	120.722899	154.771833	62.782886	338.277618
	36.965820	121.200759	153.823812	63.579574	338.604144
	36.571769	122.634337	155.561850	64.854274	343.050460
	37.162845	121.837905	155.561850	65.013611	342.413366
	35.906810	122.952910	156.667875	64.216924	343.837708
	35.537387	123.749342	155.719854	64.535599	344.004795
	35.217222	121.997191	155.087840	64.376261	341.461292
	34.700031	122.315764	154.613829	65.650961	342.580554
	34.503006	124.545775	159.827945	68.519036	352.892756
	33.641021	121.200759	155.403847	65.491624	342.096228
	33.764161	121.041472	155.245843	67.244336	343.531651
	32.680523	121.041472	154.929836	64.854274	340.825581
	32.779036	123.112197	152.559784	65.650961	341.322941
	31.547629	123.430770	160.143952	68.519036	352.093757
	31.917051	120.563613	153.981815	68.200361	342.745789
	30.390107	118.333602	152.243777	64.216924	334.794302
	30.907297	115.785018	150.031728	64.694936	330.511681
	29.700519	114.351439	148.609696	63.260898	326.222034
	29.823659	114.351439	150.189731	62.942224	327.483394
	28.813906	115.785018	148.293689	61.986199	326.064905
	28.690765	113.077147	146.713654	61.986199	321.776999
	27.828780	113.077147	148.135686	62.464211	323.677043
	27.631755	108.776412	142.763567	58.640111	310.180089
	27.040680	108.298552	144.817612	59.596136	312.712300
	26.646630	106.864974	140.709521	60.392824	307.967318
	26.203323	106.546401	141.025528	58.002761	305.574690
	25.513735	106.227828	138.971483	57.206074	302.405384
	24.627123	104.475676	137.549451	57.684086	299.709213
	24.257700	104.475676	140.709521	59.436799	304.621996
	23.346459	100.652800	134.705388	54.975349	290.333537
	22.582987	99.219222	134.863392	56.250049	290.332662
	22.115053	96.829924	132.335336	53.381974	282.547233
	21.326952	94.918486	130.123287	54.497336	279.539109
	21.031415	93.644194	131.861325	52.425949	277.931468
	19.923149	91.414183	126.015196	51.151249	268.580627
	20.563480	92.051329	126.015196	49.876549	267.943073
	19.135048	88.228453	124.277157	48.442511	260.948121
	19.061164	84.724150	122.223112	48.283174	255.230435
	18.076039	83.927717	120.801080	45.733774	250.462571
	18.322320	80.582701	118.905038	44.459074	243.946813
	16.967772	81.219847	117.957017	44.618411	243.795275
	17.066285	79.945555	116.692989	44.937086	241.575630
	15.958019	77.556258	113.848926	42.387686	233.792870
	16.228928	74.211241	110.214846	41.431661	225.857748
	15.317688	71.503371	112.742902	39.997624	224.243896
	15.687110	71.184798	108.476807	39.360274	219.021878
	14.554215	65.769057	103.578699	35.695511	205.043266
	14.480331	67.521208	104.368716	36.970211	208.860135
	14.283306	65.609770	102.472674	37.129549	205.211993
	13.839999	64.176192	102.156667	33.783461	200.116320
	13.593718	63.698332	101.524653	36.970211	202.193196
	13.175040	57.964018	97.890573	32.508761	188.363352
	12.608593	58.601164	97.732569	33.464786	189.798519
	12.116030	55.893293	93.624478	31.074724	180.592495
	12.017518	53.503996	97.100555	31.552736	182.157287
	11.377186	54.141142	92.992464	31.074724	178.208330
	11.451071	53.026136	90.780415	29.162674	172.969225
	10.761483	50.636839	89.990398	28.365986	168.993223
	11.057020	49.362547	86.988331	29.003336	165.354214
	10.195036	46.017530	86.514321	25.497911	158.029762
	10.342805	44.265379	85.092289	26.772611	156.130279
	9.850242	44.743238	84.460275	25.338573	154.542087
	10.342805	43.628233	83.670258	26.135261	153.433751
	9.308423	40.123930	79.246160	22.948511	142.318601
	10.096523	40.920362	83.196247	23.585861	147.702471
	8.963629	39.964643	79.246160	23.585861	142.796664
	9.948754	37.256773	77.508121	22.151823	136.916718
	9.160654	37.416059	78.456142	24.860561	140.732762
	9.456192	33.433897	73.242027	19.761761	126.437685
	8.988257	33.274610	74.506055	21.195799	128.976463
	9.357679	35.823194	74.822062	21.195799	131.841054
	8.643463	33.752470	74.190048	22.151823	130.094341
	9.185282	32.478178	72.452009	19.443086	124.373273
	8.914373	30.726026	70.397964	20.239773	121.363764
	8.914373	29.929594	70.081957	19.443086	119.454636
	8.717348	29.292448	69.765950	19.443086	118.501484
	8.766604	29.292448	69.765950	18.327724	117.386121
	8.692720	31.044600	70.555967	20.399111	121.999678
	8.569579	28.973875	69.133936	18.487061	116.594871
	8.692720	28.496015	67.395897	17.371699	113.263611
	8.397182	28.018156	70.081957	17.849711	115.949823
	8.618835	27.221723	67.869908	18.168386	113.260017
	8.298670	25.469572	66.763883	16.096999	108.330454
	8.544951	25.947432	66.131869	16.415674	108.494974
	8.224785	26.743864	65.815862	17.053024	109.612750
	8.618835	25.788145	66.605880	16.415674	108.809698
	8.101645	28.655302	66.447876	16.575011	111.678189
	8.939001	26.743864	67.553900	17.053024	111.350788
	8.298670	26.584578	67.395897	18.327724	112.308198
	8.840489	24.513853	66.131869	17.371699	108.017421
	8.298670	24.513853	66.763883	16.575011	107.852747
	8.988257	22.283842	63.603813	14.184949	100.072604
	8.594207	24.354567	65.815862	15.937661	106.108090
	9.234539	26.106718	65.025845	16.096999	107.229561
	9.037514	25.150999	65.183848	16.893686	107.228533
	9.431564	25.150999	66.605880	15.140974	106.897852
	9.160654	24.195280	65.183848	15.937661	105.316789
	9.677845	22.602415	64.551834	14.344286	101.498535
	9.209910	25.469572	66.289873	16.734348	108.493793
	9.603961	27.699583	66.605880	17.531036	111.836499
	9.874870	27.381010	66.763883	15.618986	109.763879
	9.948754	25.310286	65.815862	16.256336	107.382484
	9.677845	25.947432	68.027911	16.575011	110.550354
	9.800986	27.062437	68.501922	17.690373	113.254732
	10.441317	24.832426	65.973866	15.618986	106.425278
	10.367433	25.628858	72.452009	17.531036	115.611904
	10.687598	27.699583	67.869908	16.734348	112.303839
	10.293548	27.699583	67.869908	17.053024	112.622514
	10.958508	27.221723	68.975932	16.734348	112.932004
	10.490573	26.743864	66.605880	17.212361	110.562105
	11.229417	27.381010	69.923953	16.575011	113.879974
	10.859995	26.106718	68.343918	17.690373	112.141009
	11.549583	26.106718	68.185914	15.778324	110.070956
	10.983136	27.540297	69.291939	17.690373	114.522609
	11.919005	27.540297	68.659925	16.734348	112.934570
	11.426442	29.611021	72.294006	18.487061	120.392088
	12.460824	30.248167	69.449943	17.849711	117.547821
	12.239171	30.407453	71.661992	19.283748	121.353194
	13.051899	28.814589	70.555967	18.009048	117.379604
	12.830246	30.566740	70.397964	18.965074	119.929777
	13.593718	29.929594	73.400030	19.443086	122.772710
	13.027271	29.133161	70.239960	17.849711	117.222833
	13.692231	30.248167	71.819995	17.849711	119.917873
	13.692231	32.318891	72.136002	18.168386	122.623279
	14.086281	32.159605	72.926020	20.717786	125.803410
	14.184793	33.911756	76.876107	21.355136	132.143000
	14.184793	32.796751	73.242027	21.992486	128.031264
	14.184793	33.274610	75.770083	21.514474	130.559167
	14.357190	34.230329	77.034110	24.382548	135.646988
	14.972894	36.301054	76.560100	22.789174	135.650328
	14.701984	37.893919	77.824128	24.541886	140.259933
	15.416200	35.504621	77.666125	21.355136	134.525882
	14.874381	37.734632	78.930153	25.338573	142.003358
	16.056532	38.531065	79.562167	23.745199	141.838430
	15.785622	39.008924	80.668191	26.772611	146.449727
	16.696863	39.168211	78.772149	24.382548	142.322908
	16.795376	40.283216	83.828261	24.223211	148.334688
	17.287938	43.787519	81.300205	24.382548	149.470273
	17.066285	42.672514	82.880240	26.453936	152.006690
	17.484963	42.831800	83.670258	26.135261	152.637319
	17.534220	45.380384	82.880240	27.250623	155.511248
	18.026782	43.946806	86.040310	26.772611	156.759727
	17.903642	44.265379	85.882306	27.728636	157.876321
	18.273064	47.291822	87.146335	28.365986	162.804143
	18.494717	49.043974	87.146335	27.250623	163.440932
	18.519345	48.247541	86.514321	29.003336	163.765198
	19.110420	50.636839	92.834461	29.640686	173.111986
	18.765626	49.521833	89.200380	29.003336	167.725549
	19.553727	50.318266	91.412429	30.278036	172.008731
	19.184305	52.548277	91.728436	31.393399	175.670112
	19.873892	50.796125	90.148401	29.481348	170.425875
	19.800008	51.273985	93.624478	30.915386	175.813849
	20.563480	53.663283	93.308471	30.915386	177.887140
	20.169430	57.486158	94.888506	32.986774	185.361438
	20.982158	56.052580	95.362517	32.190086	183.605183
	20.563480	54.937574	92.834461	31.552736	179.324771
	21.770259	56.211866	98.048576	31.074724	185.335166
	21.203812	58.282591	96.784548	33.942799	189.009938
	21.991912	57.964018	96.784548	32.349424	187.097990
	21.548606	59.397596	98.364583	33.305449	191.067628
	22.139681	62.264753	97.416562	33.942799	193.624114
	22.164309	63.220472	103.104688	36.332861	202.658022
	22.385962	61.627607	101.840660	36.173524	199.641791
	22.238193	63.698332	101.998664	35.376836	201.073832
	21.918028	64.016905	102.946685	37.129549	204.093138
	22.065796	62.901900	102.472674	36.492199	201.866772
	21.770259	64.972624	101.840660	36.810874	203.624158
	22.435218	67.680495	104.526719	37.607561	209.814775
	21.991912	66.565489	104.526719	38.722924	209.815132
	22.730756	66.565489	105.474741	38.722924	210.763153
	22.188937	67.839781	105.632744	39.200936	212.673461
	23.001666	67.521208	106.580765	39.519611	213.621584
	22.410590	67.521208	107.212779	39.041599	213.775586
	23.001666	68.476927	106.106755	39.200936	213.784618
	22.533731	72.140517	107.528786	39.200936	218.870239
	22.977037	67.521208	105.000730	37.766899	210.288837
	22.607615	71.025511	107.844793	41.112986	219.983290
	22.952409	67.680495	105.316737	39.200936	212.198168
	22.853897	69.273360	108.160800	39.519611	216.953771
	22.484475	71.184798	110.372849	42.547024	224.104670
	22.755384	71.184798	109.108821	41.431661	221.725279
	22.361334	70.547652	108.950817	40.953649	220.452118
	22.533731	72.140517	110.530853	41.750336	224.421705
	21.794887	73.892668	109.740835	42.387686	226.021189
	22.656872	73.255522	111.320870	42.706361	227.282753
	21.918028	69.432646	108.476807	42.387686	220.297139
	22.509103	72.618376	109.740835	42.387686	224.746897
	22.065796	73.096236	113.216912	44.777749	231.090896
	22.582987	71.981230	111.004863	42.706361	225.692454
	22.188937	73.574095	111.636877	44.140399	229.351371
	22.065796	71.503371	108.634811	39.997624	220.135805
	21.721002	72.299803	108.634811	43.503049	224.437662
	21.696374	71.344084	111.478874	41.750336	224.573294
	21.597862	73.096236	111.320870	43.184374	227.601479
	21.425465	69.432646	108.160800	39.678949	217.272395
	21.129927	72.936949	110.846860	42.387686	226.171495
	20.735877	72.459090	110.214846	42.865699	225.539634
	20.883646	73.255522	112.426895	41.909674	227.592090
	20.120174	71.981230	108.792814	42.069011	222.843055
	20.661993	70.229078	110.372849	41.590999	222.192926
	19.997033	71.025511	109.898839	41.750336	222.674686
	20.637365	70.388365	108.002797	40.316299	218.707460
	19.627611	70.388365	110.846860	42.228349	223.463573
	20.366455	70.069792	107.686790	39.838286	217.594868
	19.405958	71.025511	108.476807	40.475636	219.977954
	19.972405	69.273360	107.212779	39.200936	215.687075
	19.085792	68.954786	107.212779	41.272324	217.439889
	19.529098	68.795500	109.424828	39.519611	217.739939
	18.839511	67.361922	105.632744	40.156961	213.151627
	18.962651	66.884062	105.948751	38.404249	211.237062
	18.445461	65.609770	104.368716	38.404249	208.382735
	18.346948	66.565489	102.946685	38.085574	207.597747
	18.076039	68.476927	108.318804	41.431661	218.227392
	18.174551	67.202635	103.736702	38.563586	209.502923
	17.928270	65.769057	104.052709	39.200936	209.022702
	17.731245	63.698332	102.946685	36.970211	203.615228
	17.460335	63.539046	102.156667	37.766899	203.462611
	17.164798	65.928343	106.264758	39.519611	211.712712
	17.263310	64.972624	102.630678	37.129549	204.732850
	16.499838	62.583327	101.840660	37.129549	201.553535
	17.017029	61.946180	100.892639	35.058161	197.896981
	16.401325	62.264753	101.208646	37.607561	201.080961
	16.647607	59.079023	98.680590	35.058161	192.817775
	16.105788	61.786894	102.630678	38.085574	202.503145
	16.278185	58.282591	97.100555	33.624124	189.007270
	16.105788	62.583327	100.102621	37.129549	199.815496
	16.647607	57.167586	96.152534	34.261474	187.581593
	16.031903	57.804731	95.678523	34.420811	187.904066
	16.352069	57.486158	100.260625	36.014186	193.760969
	15.785622	57.486158	97.100555	35.536174	190.122887
	16.056532	53.185423	93.624478	33.942799	180.752700
	15.711738	55.734007	94.730503	33.624124	184.088633
	15.687110	55.415434	92.834461	34.420811	182.670705
	15.440828	55.256147	95.836527	33.783461	184.876136
	15.194547	54.778288	92.992464	34.580149	182.350901
	15.046778	54.778288	94.414496	33.464786	182.657569
	15.096034	51.592558	92.834461	34.102136	178.529155
	14.948266	53.185423	91.412429	32.827436	177.425288
	14.825125	51.114699	95.204513	34.261474	180.580685
	14.726612	50.955412	92.518454	32.827436	176.301301
	14.258678	52.548277	92.044443	34.580149	179.172868
	14.628100	52.866850	90.938419	32.190086	175.995355
	14.037025	50.158980	91.254426	33.464786	174.878191
	14.825125	50.158980	90.938419	30.756049	171.853446
	13.963140	49.203260	89.042377	32.349424	170.595060
	14.628100	48.088255	89.516387	30.596711	168.201353
	13.913884	51.273985	89.358384	32.349424	172.981792
	14.554215	48.247541	88.094356	29.800024	166.141921
	13.987768	50.796125	89.042377	31.712074	171.550576
	14.332562	47.132536	85.408296	29.003336	161.544168
	14.234050	48.884687	89.516387	31.712074	170.113148
	13.987768	44.265379	84.776282	26.294599	155.336260
	13.963140	45.698957	86.672324	29.162674	161.533955
	13.987768	45.380384	87.462342	29.481348	162.324074
	14.086281	46.813963	86.830328	29.162674	162.806964
	13.741487	47.769682	86.198314	29.640686	163.608681
	13.938512	46.813963	86.830328	29.162674	162.806964
	13.470577	47.451109	86.356317	30.437373	164.244799
	13.716859	46.017530	84.618279	28.047311	158.683120
	13.347437	46.336103	88.726370	30.915386	165.977859
	13.987768	42.991087	83.828261	25.816586	152.635934
	13.396693	45.539671	85.724303	28.843999	160.107973
	14.110909	46.813963	84.460275	27.091286	158.365524
	13.544462	45.061811	84.144268	28.206648	157.412728
	14.086281	43.787519	84.934286	26.453936	155.175741
	13.544462	44.106093	84.144268	27.569299	155.819659
	13.864628	42.194654	83.512254	26.135261	151.842170
	13.667603	43.946806	83.354251	28.206648	155.507705
	13.741487	43.150374	82.564233	26.772611	152.487218
	13.569090	42.672514	83.038244	27.250623	152.961381
	13.519834	44.106093	84.460275	27.091286	155.657654
	13.692231	46.336103	84.302272	27.569299	158.207673
	13.421321	42.513227	82.248226	25.816586	150.578039
	13.889256	42.991087	84.302272	27.569299	154.862657
	13.224296	42.672514	83.670258	26.294599	152.637370
	13.864628	43.628233	84.934286	28.684661	157.247180
	13.593718	42.672514	84.934286	28.525324	156.132123
	13.864628	42.831800	84.934286	25.975924	153.742009
	13.125784	45.061811	82.722237	27.728636	155.512684
	13.815371	44.424665	88.568366	28.843999	161.837030
	13.569090	44.265379	84.460275	28.843999	157.569652
	14.160165	45.221098	85.408296	29.800024	160.429417
	13.544462	42.353941	83.038244	27.250623	152.642808
	14.406447	42.194654	80.984198	27.409961	150.588814
	13.889256	42.353941	84.618279	26.772611	153.744831
	14.578844	45.380384	82.722237	28.206648	156.309269
	14.357190	43.468946	83.986265	28.206648	155.661859
	14.899009	38.690351	80.984198	25.975924	145.650473
	14.406447	42.991087	83.512254	27.569299	154.072640
	14.800497	42.353941	84.934286	29.162674	156.450900
	14.381818	42.194654	83.038244	28.206648	153.439547
	15.022150	43.150374	83.828261	30.118699	157.097333
	14.628100	45.221098	84.618279	27.887974	157.727350
	14.899009	43.628233	82.880240	29.800024	156.308497
	14.899009	44.106093	86.198314	28.365986	158.670392
	14.849753	44.583952	84.460275	30.437373	159.481600
	14.899009	42.672514	84.934286	28.365986	155.972786
	14.948266	43.628233	84.460275	29.800024	157.888531
	15.022150	44.265379	84.144268	28.365986	156.775633
	14.972894	44.265379	88.568366	31.552736	164.386481
	15.046778	45.380384	84.776282	28.843999	159.000665
	14.948266	47.769682	86.988331	32.508761	167.266774
	15.613225	45.221098	85.566300	29.003336	159.790733
	15.268431	47.291822	86.356317	32.668099	166.316238
	15.711738	47.610396	89.832394	30.915386	168.358176
	15.169919	46.654677	86.514321	32.349424	165.518421
	15.834878	45.698957	86.356317	29.162674	161.217948
	15.169919	47.291822	87.462342	31.393399	166.147562
	15.785622	50.477552	87.620345	30.756049	168.853946
	15.810250	46.973249	86.830328	30.118699	163.922276
	16.278185	46.813963	88.726370	30.915386	166.455719
	15.662481	47.451109	87.778349	29.481348	164.710806
	16.376697	46.654677	87.778349	29.640686	164.073711
	15.958019	48.088255	88.884373	31.234061	168.206689
	16.721491	49.203260	88.726370	31.074724	169.004354
	16.450582	50.955412	91.412429	31.074724	173.442565
	16.721491	48.884687	88.726370	30.437373	168.048431
	16.499838	48.566114	89.832394	29.959361	168.357869
	16.647607	49.043974	89.832394	30.756049	169.632417
	16.352069	51.273985	90.938419	32.349424	174.561827
	16.918516	50.636839	92.992464	30.915386	174.544689
	16.770747	49.043974	87.936352	29.003336	165.983662
	16.893888	54.937574	93.150468	33.783461	181.871503
	16.943144	53.026136	92.834461	32.508761	178.369358
	16.820004	48.884687	88.410363	30.756049	168.051098
	17.017029	49.999693	91.570433	30.437373	172.007499
	16.598350	50.636839	91.412429	32.030749	174.080016
	17.164798	51.911131	92.992464	32.349424	177.253018
	16.746119	51.911131	92.360450	32.349424	176.621005
	17.263310	53.026136	90.938419	31.871411	175.835966
	16.573722	52.548277	96.152534	32.508761	181.209572
	17.386451	53.344709	92.360450	31.712074	177.417233
	16.647607	52.070417	92.834461	32.668099	177.572977
	17.238682	48.725401	90.306405	29.640686	168.672492
	16.450582	52.229704	91.412429	31.234061	174.876194
	17.558848	52.548277	94.098489	32.508761	179.155527
	16.795376	53.344709	92.202447	32.030749	177.577904
	17.558848	53.981855	93.624478	33.146111	180.752445
	16.918516	54.619002	94.256492	32.986774	181.862267
	17.411079	54.141142	93.624478	33.624124	181.389744
	17.115541	54.141142	95.362517	35.536174	185.039832
	17.583476	54.141142	94.256492	34.420811	182.818445
	16.943144	54.937574	95.362517	36.332861	186.632952
	17.460335	54.778288	94.256492	32.986774	182.021554
	17.509591	55.415434	94.730503	36.810874	186.956810
	17.632732	55.415434	95.836527	34.261474	185.513435
	17.681988	54.141142	94.888506	35.217499	184.247147
	17.854385	54.141142	95.204513	34.739486	184.085141
	17.509591	55.415434	96.310537	37.607561	189.333532
	17.805129	55.415434	95.204513	34.898823	185.518770
	17.361823	57.486158	95.204513	37.766899	190.457570
	17.829757	56.849013	97.416562	35.695511	189.961086
	17.534220	57.326872	96.468541	36.492199	190.287611
	17.657360	57.008299	96.942552	35.536174	189.487024
	17.435707	55.734007	96.152534	37.448224	189.334765
	17.706617	54.937574	95.678523	34.261474	184.877571
	17.435707	55.415434	97.100555	36.810874	189.326863
	17.583476	57.486158	98.048576	37.129549	192.664283
	17.263310	57.167586	96.942552	38.244911	192.355048
	17.411079	61.309034	97.732569	37.448224	196.489827
	17.386451	56.689726	95.678523	36.492199	188.860448
	17.386451	56.849013	95.994531	35.536174	188.379717
	17.263310	57.804731	98.048576	39.041599	194.894906
	17.263310	56.211866	97.416562	36.332861	189.961290
	17.361823	59.238310	99.312604	39.997624	198.548538
	16.844632	56.371153	96.152534	35.536174	188.059861
	17.337195	57.486158	96.626545	35.536174	189.648877
	17.041657	57.167586	96.784548	36.173524	190.125657
	17.140169	56.211866	96.626545	34.580149	187.418560
	16.672235	55.734007	95.994531	35.217499	186.946036
	16.820004	53.344709	92.992464	32.827436	179.164610
	16.499838	56.371153	99.786615	35.854849	192.012616
	16.746119	54.141142	93.466475	32.349424	179.957040
	16.450582	59.397596	96.784548	36.014186	192.196331
	16.770747	56.052580	96.468541	34.580149	187.101270
	16.327441	56.052580	94.414496	36.014186	186.481261
	16.770747	56.371153	98.048576	34.739486	189.159215
	16.081160	54.937574	95.362517	35.536174	185.836265
	16.549094	54.300428	95.836527	34.420811	184.557767
	16.179672	55.734007	95.678523	34.102136	185.514667
	16.401325	57.167586	95.994531	35.854849	189.016965
	16.155044	54.619002	94.730503	33.783461	183.132965
	16.204300	55.096861	93.940485	34.739486	183.776832
	15.563969	54.459715	94.098489	33.464786	182.022989
	15.933391	53.185423	95.520520	34.261474	182.967417
	15.687110	55.415434	94.098489	35.058161	184.572084
	16.031903	54.778288	96.942552	35.058161	186.779001
	15.958019	53.663283	95.204513	34.898823	183.766619
	16.155044	53.503996	93.466475	33.305449	180.275919
	15.613225	56.849013	95.520520	35.058161	187.427694
	15.834878	53.663283	92.834461	33.624124	180.121867
	15.317688	53.344709	95.678523	33.624124	182.647357
	15.760994	52.070417	91.728436	32.508761	176.307614
	14.972894	51.911131	93.150468	32.827436	177.889035
	15.613225	52.388990	93.782482	33.783461	179.954933
	15.194547	53.344709	92.834461	33.783461	179.962631
	16.007275	56.371153	94.888506	34.102136	185.361795
	15.169919	52.388990	93.150468	33.942799	179.482257
	15.859506	52.070417	92.834461	33.942799	178.847677
	15.046778	52.866850	93.624478	35.695511	182.186839
	15.514713	50.796125	92.202447	32.986774	175.985345
	14.874381	48.725401	89.516387	34.261474	172.503262
	15.366944	50.158980	92.676457	32.190086	175.025523
	14.899009	52.229704	91.412429	34.898823	178.540956
	15.342316	51.433271	92.044443	33.624124	177.101838
	14.800497	50.796125	91.728436	35.695511	178.220073
	15.317688	50.318266	89.516387	32.349424	172.184077
	14.874381	49.362547	91.254426	34.420811	175.037783
	15.120662	50.796125	91.570433	33.783461	176.150019
	14.677356	50.318266	90.938419	33.624124	174.880808
	15.440828	53.503996	91.570433	33.464786	178.539215
	14.652728	49.999693	89.358384	34.261474	173.619550
	15.416200	46.813963	91.728436	30.437373	168.979773
	14.849753	49.999693	90.148401	33.942799	174.090893
	15.293059	47.769682	89.516387	31.552736	168.838805
	14.431075	50.796125	91.886440	36.173524	178.856089
	15.169919	48.725401	87.936352	32.030749	168.692501
	14.800497	50.477552	91.254426	33.464786	175.196764
	15.071406	48.725401	89.358384	32.508761	170.592546
	14.825125	51.273985	90.464408	34.102136	175.840529
	15.194547	49.043974	89.516387	32.349424	170.909785
	14.701984	47.291822	87.778349	32.668099	167.738270
	14.775869	46.813963	90.780415	30.915386	168.509764
	14.529587	47.769682	89.042377	34.261474	171.073532
	14.406447	46.495390	89.200380	31.871411	167.567181
	14.603472	47.928968	88.884373	31.552736	168.366077
	14.849753	49.999693	85.724303	30.915386	166.639382
	14.603472	48.247541	89.832394	31.074724	169.154659
	14.825125	47.291822	87.778349	31.393399	166.463570
	14.504959	46.495390	87.462342	29.640686	163.598418
	14.972894	47.291822	88.568366	31.552736	167.412925
	14.628100	48.725401	88.252359	31.393399	168.371158
	14.578844	47.769682	88.252359	31.552736	167.574777
	14.775869	50.158980	88.252359	31.074724	169.486062
	14.431075	46.495390	87.462342	30.596711	164.554443
	14.455703	48.566114	90.622412	32.668099	171.856625
	14.357190	47.769682	87.778349	30.915386	166.463417
	14.480331	45.858244	87.936352	29.800024	163.594620
	14.184793	48.725401	91.096422	32.508761	172.330584
	14.603472	48.088255	88.410363	31.552736	168.051354
	14.283306	48.884687	89.042377	30.437373	168.364438
	14.480331	46.813963	87.462342	30.437373	164.713678
	14.332562	45.380384	85.092289	29.162674	159.635347
	14.701984	46.017530	88.410363	29.959361	164.387254
	14.061653	46.336103	88.252359	30.437373	165.025836
	14.677356	46.336103	88.252359	31.234061	165.822523
	14.184793	47.132536	87.620345	30.278036	165.030917
	15.022150	47.928968	86.988331	29.162674	164.079973
	14.381818	46.813963	87.778349	29.640686	164.232998
	14.923637	48.247541	88.252359	31.712074	168.211974
	14.234050	47.610396	88.726370	31.074724	167.411489
	14.948266	46.654677	87.304338	31.234061	165.193076
	14.406447	46.813963	87.146335	29.800024	163.760321
	15.046778	46.336103	87.620345	30.915386	164.871835
	14.628100	46.973249	87.462342	31.074724	165.510314
	15.120662	47.132536	88.094356	30.756049	165.982940
	14.825125	46.813963	85.724303	30.278036	162.816302
	15.268431	46.813963	86.198314	31.074724	164.087000
	14.997522	45.380384	88.568366	32.827436	166.776187
	15.416200	46.813963	87.778349	31.552736	166.145048
	14.899009	46.176817	87.304338	32.827436	166.308591
	15.563969	49.681120	88.726370	31.712074	170.119563
	15.366944	48.406828	88.410363	33.942799	170.759989
	15.465456	47.291822	90.306405	31.712074	169.310301
	15.120662	47.610396	87.304338	33.464786	168.379520
	15.490084	47.291822	88.884373	32.349424	168.525619
	15.194547	49.840406	91.412429	35.536174	176.789009
	15.687110	47.451109	87.304338	32.030749	166.786196
	15.342316	50.318266	91.412429	33.783461	175.514156
	15.539341	48.406828	88.726370	32.508761	169.641959
	15.563969	49.681120	88.884373	32.349424	170.914917
	15.884135	49.840406	90.306405	33.464786	173.611597
	15.588597	46.813963	88.410363	33.783461	169.007787
	15.490084	48.725401	90.938419	32.508761	172.172581
	15.366944	47.769682	87.778349	32.349424	167.897454
	15.760994	46.336103	89.200380	32.190086	167.726570
	15.490084	48.088255	89.200380	32.349424	169.638058
	15.859506	51.911131	89.200380	34.102136	175.213647
	15.539341	49.521833	92.044443	33.146111	174.712387
	15.662481	49.362547	89.516387	32.508761	171.387695
	15.785622	50.158980	91.412429	34.420811	175.992220
	15.662481	47.928968	90.464408	32.508761	170.902137
	15.342316	49.362547	89.832394	32.986774	172.181714
	15.958019	49.362547	92.202447	32.827436	174.392430
	15.859506	51.911131	90.938419	34.102136	176.951686
	15.785622	52.548277	92.834461	35.695511	181.078249
	15.760994	50.796125	91.254426	32.349424	174.399975
	15.736366	50.318266	90.464408	33.783461	174.566135
	15.711738	49.999693	92.676457	32.668099	175.344249
	15.785622	49.043974	91.570433	33.146111	173.760517
	16.031903	50.796125	91.570433	32.668099	175.034657
	15.711738	52.229704	92.044443	33.624124	177.898270
	16.302813	50.318266	90.780415	32.668099	173.766780
	15.391572	50.955412	90.780415	33.146111	174.881938
	16.130416	51.273985	94.256492	33.624124	179.154601
	15.514713	48.884687	90.464408	31.552736	170.901832
	16.278185	52.388990	93.782482	35.536174	181.707646
	15.490084	51.114699	92.202447	32.986774	176.303919
	16.401325	55.734007	92.044443	35.536174	183.314623
	15.391572	51.592558	93.308471	34.261474	179.162503
	16.598350	49.043974	89.990398	32.190086	171.224458
	15.736366	50.796125	91.728436	33.146111	175.670673
	16.450582	50.796125	92.518454	33.783461	177.098040
	15.785622	51.114699	91.254426	34.580149	176.949273
	16.499838	50.796125	95.046509	33.464786	179.307421
	15.958019	51.911131	92.044443	33.783461	177.739035
	16.253557	52.548277	93.466475	34.898823	180.913575
	15.958019	54.459715	92.676457	33.624124	180.760295
	16.524466	50.796125	90.780415	33.624124	175.200664
	16.253557	51.433271	93.782482	34.102136	179.317889
	16.401325	52.070417	92.992464	34.420811	179.483693
	16.155044	50.477552	92.676457	34.898823	178.052833
	16.647607	52.229704	94.572499	35.695511	182.497714
	16.130416	52.388990	92.202447	35.376836	179.968273
	16.228928	52.070417	94.414496	32.827436	179.312349
	16.179672	52.388990	92.676457	37.448224	182.513671
	16.228928	52.548277	95.362517	35.695511	183.606305
	16.228928	52.548277	93.466475	37.129549	183.144300
	16.253557	52.070417	91.728436	35.058161	178.857015
	16.302813	53.026136	95.520520	36.810874	185.357530
	15.859506	51.751844	92.518454	34.739486	179.009784
	16.105788	55.096861	93.624478	37.448224	186.169563
	15.834878	53.185423	93.940485	36.014186	183.140094
	15.958019	51.433271	92.834461	36.332861	180.600593
	15.613225	52.070417	91.886440	34.739486	178.696343
	15.760994	51.911131	93.624478	36.651536	182.187145
	15.391572	53.026136	95.520520	37.926236	186.472893
	15.982647	51.114699	92.676457	33.783461	177.574617
	15.490084	53.503996	92.518454	35.217499	181.239948
	15.785622	53.185423	93.624478	36.014186	182.824087
	15.440828	51.751844	93.624478	34.739486	180.115809
	15.908763	52.548277	93.308471	35.536174	181.392921
	15.490084	51.114699	93.150468	35.058161	179.323327
	15.908763	49.681120	90.780415	33.146111	173.607646
	15.317688	51.911131	91.412429	34.420811	177.744371
	16.081160	52.866850	93.624478	34.261474	180.752802
	15.342316	52.070417	93.150468	35.376836	180.597721
	16.081160	53.822569	93.940485	35.217499	182.980553
	15.539341	50.318266	90.622412	32.986774	173.927451
	15.958019	51.114699	92.834461	33.942799	177.891958
	15.637853	51.273985	93.308471	34.580149	179.162604
	16.155044	50.796125	92.202447	33.942799	176.941371
	15.613225	51.911131	93.150468	35.695511	180.757110
	15.958019	50.955412	91.412429	33.464786	175.832627
	15.514713	57.008299	93.624478	37.288886	187.921663
	16.155044	52.070417	94.730503	34.102136	180.903056
	15.490084	52.070417	93.940485	36.014186	182.025088
	15.908763	53.185423	93.940485	35.536174	182.662081
	15.317688	53.822569	95.204513	37.607561	186.634643
	15.760994	48.247541	88.094356	31.871411	168.213308
	15.465456	51.911131	93.624478	34.102136	179.637745
	15.563969	52.229704	91.886440	34.420811	178.536955
	15.465456	51.114699	92.676457	33.464786	177.255942
	15.465456	48.725401	90.464408	32.349424	171.539232
	15.219175	50.636839	90.622412	32.986774	174.246024
	15.145291	50.796125	93.624478	34.420811	178.841414
	15.366944	50.955412	91.254426	34.261474	176.471311
	15.022150	50.636839	91.570433	34.420811	176.628083
	15.342316	53.503996	92.360450	35.058161	180.922607
	14.874381	50.158980	89.990398	33.783461	173.932838
	15.317688	49.999693	93.308471	37.129549	180.437713
	14.800497	52.070417	92.834461	36.173524	181.078402
	15.243803	50.477552	91.886440	36.492199	178.856190
	14.652728	48.088255	90.780415	33.783461	172.652131
	15.243803	50.318266	90.780415	35.854849	176.953530
	14.603472	52.388990	92.992464	35.058161	180.439616
	15.293059	49.521833	88.884373	34.261474	172.667680
	14.603472	51.114699	91.728436	34.580149	177.423283
	15.317688	50.318266	91.412429	36.173524	177.904219
	14.628100	51.114699	91.412429	36.651536	179.178664
	15.366944	49.521833	92.044443	35.376836	176.943112
	14.874381	48.247541	89.042377	33.146111	170.436029
	15.687110	47.132536	89.516387	34.739486	171.388409
	15.268431	48.884687	90.148401	33.146111	172.179200
	15.613225	49.681120	89.042377	34.898823	173.622320
	15.194547	48.884687	90.148401	33.464786	172.497875
	15.243803	47.610396	88.252359	34.898823	170.761578
	14.800497	48.406828	90.148401	33.624124	172.179352
	15.096034	49.362547	91.728436	36.173524	177.264507
	15.096034	49.681120	89.516387	33.146111	172.343618
	14.726612	46.176817	86.356317	31.552736	164.085870
	15.194547	48.566114	91.728436	33.464786	173.759337
	14.726612	50.158980	90.622412	35.695511	176.476902
	14.948266	49.203260	91.886440	35.058161	176.147861
	14.628100	49.840406	91.254426	34.580149	175.674981
	14.972894	48.884687	89.200380	34.739486	172.824554
	14.578844	49.203260	93.308471	33.624124	176.135855
	15.046778	49.203260	89.516387	33.942799	172.662446
	14.578844	49.840406	89.990398	32.827436	172.658240
	15.096034	48.088255	89.516387	33.146111	170.750753
	14.357190	47.769682	88.094356	32.668099	168.532136
	15.145291	50.796125	92.834461	35.536174	179.166760
	14.037025	48.088255	89.516387	32.508761	170.113403
	14.899009	49.203260	91.096422	34.580149	174.879831
	14.701984	49.840406	91.254426	33.783461	174.878293
	14.997522	49.681120	86.514321	31.871411	168.066852
	14.701984	48.088255	92.834461	32.508761	173.431477
	15.022150	47.291822	88.094356	32.508761	167.894939
	14.751240	47.769682	89.516387	32.508761	169.794830
	15.243803	47.769682	89.674391	33.464786	170.908859
	14.800497	46.336103	86.988331	31.552736	164.877171
	15.293059	47.769682	90.148401	33.146111	171.064194
	14.948266	48.566114	88.726370	32.349424	169.641908
	15.169919	48.406828	90.148401	33.624124	172.179352
	14.825125	49.043974	90.148401	32.190086	171.382461
	15.120662	47.291822	87.620345	32.190086	167.102254
	14.972894	46.973249	92.202447	32.668099	171.843795
	14.800497	46.973249	87.936352	32.030749	166.940350
	14.972894	46.495390	88.568366	31.393399	166.457155
	14.899009	51.592558	90.306405	32.827436	174.726399
	14.923637	48.088255	88.568366	32.986774	169.643394
	14.972894	47.610396	90.622412	32.827436	171.060243
	14.972894	49.521833	91.096422	34.580149	175.198404
	14.726612	46.176817	87.462342	32.349424	165.988582
	14.726612	48.406828	90.622412	34.102136	173.131376
	15.096034	49.362547	90.148401	34.739486	174.250434
	15.022150	48.406828	86.830328	31.871411	167.108566
	14.578844	46.176817	88.884373	32.986774	168.047963
	15.268431	50.318266	91.096422	35.217499	176.632187
	14.529587	47.451109	88.884373	34.739486	171.074968
	14.899009	49.043974	90.938419	35.217499	175.199891
	14.677356	48.406828	89.200380	36.332861	173.940069
	15.317688	49.203260	91.570433	34.420811	175.194504
	14.701984	46.973249	88.410363	34.261474	169.645085
	15.366944	46.973249	88.094356	32.190086	167.257691
	14.775869	50.636839	89.674391	36.332861	176.644091
	15.268431	51.114699	90.938419	36.332861	178.385978
	14.652728	47.928968	90.938419	35.217499	174.084886
	15.366944	50.796125	92.360450	35.854849	179.011424
	14.628100	48.088255	90.464408	36.332861	174.885524
	15.293059	47.769682	89.674391	33.783461	171.227534
	14.775869	49.043974	90.780415	38.085574	177.909963
	15.366944	50.955412	90.622412	33.624124	175.201947
	14.874381	49.362547	90.306405	36.651536	176.320488
	15.342316	49.521833	90.780415	34.739486	175.041734
	14.997522	49.521833	90.622412	36.014186	176.158431
	15.539341	48.088255	88.252359	33.624124	169.964737
	15.120662	47.769682	94.098489	35.217499	177.085669
	15.391572	49.043974	89.832394	34.102136	172.978504
	15.416200	50.636839	90.622412	35.058161	176.317412
	15.317688	48.884687	89.990398	33.783461	172.658546
	15.366944	47.928968	88.410363	32.827436	169.166767
	15.490084	48.566114	91.728436	33.783461	174.078012
	15.366944	48.566114	89.674391	33.146111	171.386616
	15.243803	49.840406	91.728436	35.695511	177.264354
	15.219175	49.203260	90.780415	33.146111	173.129787
	14.775869	54.459715	92.360450	36.332861	183.153026
	15.022150	50.796125	91.570433	34.420811	176.787369
	14.972894	49.043974	89.674391	34.420811	173.139176
	15.046778	50.477552	92.044443	34.420811	176.942807
	14.701984	49.840406	92.202447	33.624124	175.666977
	15.465456	49.362547	90.464408	34.420811	174.247766
	14.603472	50.636839	92.834461	34.580149	178.051448
	16.401325	49.681120	89.516387	32.349424	171.546931
	14.899009	48.725401	89.832394	33.146111	171.703906
	15.834878	49.999693	90.306405	32.349424	172.655521
	14.775869	49.840406	90.622412	34.261474	174.724291
	15.711738	48.725401	91.096422	33.624124	173.445946
	15.268431	50.158980	90.148401	35.058161	175.365542
	15.613225	48.566114	90.464408	32.986774	172.017296
	15.514713	49.203260	92.202447	34.420811	175.826518
	15.711738	50.955412	90.622412	34.420811	175.998635
	15.366944	50.477552	92.044443	33.146111	175.668107
	15.711738	53.026136	93.308471	36.810874	183.145481
	15.416200	50.955412	92.518454	35.058161	178.532027
	15.391572	51.911131	93.308471	36.492199	181.711801
	15.465456	51.114699	92.518454	35.536174	179.169326
	15.884135	50.636839	90.780415	35.536174	176.953428
	15.637853	51.114699	92.518454	34.580149	178.213301
	15.268431	52.388990	92.518454	36.651536	181.558980
	15.490084	50.955412	92.202447	36.492199	179.650057
	15.120662	48.406828	91.096422	34.739486	174.242736
	15.366944	51.911131	91.570433	38.085574	181.567137
	15.194547	50.796125	93.782482	36.332861	180.911468
	15.613225	51.273985	93.466475	39.838286	184.578745
	15.120662	51.592558	92.992464	36.492199	181.077221
	15.539341	52.229704	92.676457	37.766899	182.673059
	15.071406	50.636839	91.096422	35.695511	177.428772
	15.637853	49.681120	93.940485	36.651536	180.273141
	14.775869	50.477552	90.780415	35.854849	177.112816
	15.687110	51.114699	93.150468	39.041599	183.306765
	14.923637	49.840406	91.412429	34.898823	176.151659
	15.391572	50.955412	90.622412	37.607561	179.185385
	15.219175	53.663283	93.150468	35.536174	182.349923
	15.613225	50.796125	91.412429	37.607561	179.816115
	14.849753	50.477552	92.044443	35.536174	178.058169
	15.563969	50.318266	92.360450	36.810874	179.489590
	15.096034	50.158980	90.938419	35.536174	176.633572
	15.687110	49.840406	94.888506	37.288886	182.017799
	15.120662	50.158980	90.780415	35.536174	176.475568
	15.687110	51.114699	91.728436	36.810874	179.654008
	15.071406	49.362547	90.622412	34.420811	174.405770
	15.539341	51.114699	88.884373	35.854849	175.853920
	15.366944	50.318266	92.992464	35.376836	178.687566
	15.268431	48.566114	91.096422	35.854849	175.517385
	15.342316	50.318266	92.044443	35.536174	177.898883
	15.120662	49.203260	90.938419	35.376836	175.518515
	15.366944	52.229704	91.096422	35.376836	178.702962
	15.465456	50.796125	91.096422	34.739486	176.632034
	15.219175	50.318266	92.676457	36.014186	179.008909
	15.243803	50.636839	92.044443	34.898823	177.580106
	15.293059	48.088255	90.622412	33.942799	172.653465
	15.071406	48.884687	90.938419	34.102136	173.925242
	15.096034	50.796125	91.728436	35.695511	178.220073
	14.874381	50.796125	92.044443	34.261474	177.102042
	15.416200	48.247541	90.148401	33.305449	171.701391
	14.825125	50.955412	92.044443	34.739486	177.739341
	15.145291	50.158980	91.412429	35.058161	176.629570
	14.677356	48.406828	89.200380	34.261474	171.868682
	15.071406	49.681120	94.256492	33.783461	177.721073
	14.825125	50.955412	92.676457	35.854849	179.486717
	14.997522	51.114699	91.728436	34.739486	177.582621
	14.554215	51.592558	92.518454	36.492199	180.603210
	15.120662	51.592558	90.622412	33.942799	176.157768
	14.628100	49.681120	92.044443	34.261474	175.987036
	15.071406	49.203260	92.360450	34.261474	175.825184
	14.652728	48.088255	89.516387	33.146111	170.750753
	15.046778	48.884687	91.254426	33.624124	173.763237
	14.504959	50.158980	90.780415	35.536174	176.475568
	15.046778	49.840406	93.624478	33.942799	177.407683
	14.751240	49.362547	88.726370	32.349424	170.438340
	15.194547	50.796125	92.360450	34.580149	177.736724
	14.726612	51.592558	92.044443	36.014186	179.651187
	15.219175	49.521833	90.306405	33.942799	173.771037
	14.825125	48.088255	91.570433	33.942799	173.601486
	15.268431	49.203260	92.044443	35.536174	176.783877
	14.406447	49.681120	90.938419	34.898823	175.518362
	15.440828	49.999693	89.990398	35.536174	175.526264
	14.504959	48.725401	89.042377	34.261474	172.029251
	15.440828	47.928968	91.096422	35.695511	174.720902
	14.628100	48.406828	88.884373	34.261474	171.552675
	15.268431	49.203260	91.570433	37.926236	178.699929
	14.948266	48.088255	90.306405	34.898823	173.293483
	15.219175	48.566114	88.884373	36.810874	174.261361
	14.899009	52.548277	92.518454	35.536174	180.602904
	15.120662	47.928968	88.884373	34.898823	171.712165
	14.899009	49.521833	91.096422	36.014186	176.632441
	15.293059	48.884687	90.622412	36.810874	176.317973
	14.800497	47.610396	89.832394	34.261474	171.704263
	15.268431	46.973249	88.568366	35.376836	170.918452
	14.603472	50.158980	92.202447	36.014186	178.375612
	15.071406	50.955412	89.674391	35.536174	176.165976
	14.997522	47.291822	89.358384	33.464786	170.114992
	15.194547	50.477552	90.464408	35.695511	176.637472
	14.972894	49.043974	91.096422	35.058161	175.198557
	15.046778	49.043974	92.202447	37.926236	179.172657
	14.825125	49.362547	90.622412	35.536174	175.521132
	15.022150	49.043974	91.728436	36.810874	177.583284
	14.775869	46.813963	89.516387	34.580149	170.910499
	14.948266	48.566114	89.516387	35.854849	173.937350
	14.849753	50.796125	90.148401	35.695511	176.640038
	14.899009	49.043974	90.622412	35.376836	175.043222
	14.972894	48.884687	91.096422	35.536174	175.517283
	14.677356	49.999693	90.938419	36.810874	177.748985
	14.825125	49.043974	91.570433	35.536174	176.150580
	14.307934	49.999693	92.834461	35.695511	178.529665
	14.775869	51.114699	92.518454	36.970211	180.603363
	14.431075	51.433271	90.780415	34.261474	176.475160
	14.948266	46.336103	88.252359	32.668099	167.256561
	14.578844	47.451109	89.358384	34.102136	170.911629
	15.120662	48.406828	93.150468	33.942799	175.500094
	14.234050	47.132536	88.094356	33.146111	168.373002
	15.120662	47.451109	90.148401	33.464786	171.064296
	14.258678	49.521833	91.096422	34.898823	175.517079
	15.219175	48.725401	86.988331	32.508761	168.222493
	14.628100	49.362547	92.360450	35.058161	176.781158
	15.022150	48.247541	89.990398	33.464786	171.702725
	14.603472	48.406828	90.148401	34.420811	172.976040
	15.391572	48.566114	90.622412	34.102136	173.290662
	14.726612	48.884687	90.306405	34.898823	174.089916
	15.219175	48.566114	91.412429	34.102136	174.080680
	14.923637	49.840406	87.146335	32.668099	169.654840
	15.194547	48.088255	89.990398	33.783461	171.862114
	14.874381	48.566114	90.622412	34.739486	173.928012
	15.317688	46.813963	86.830328	32.349424	165.993714
	14.874381	48.247541	91.886440	35.217499	175.351480
	15.268431	47.769682	89.516387	34.739486	172.025555
	14.825125	48.725401	90.938419	35.536174	175.199993
	15.022150	49.999693	90.938419	35.536174	176.474285
	14.677356	50.477552	91.096422	36.651536	178.225510
	14.972894	52.070417	93.624478	36.332861	182.027757
	14.825125	49.203260	89.516387	35.536174	174.255821
	14.652728	47.928968	90.780415	35.376836	174.086220
	14.578844	50.158980	91.728436	35.854849	177.742264
	14.628100	47.132536	88.252359	36.332861	171.717756
	14.874381	48.088255	91.886440	35.536174	175.510868
	14.677356	49.681120	91.096422	37.129549	177.907090
	14.972894	49.840406	90.938419	35.376836	176.155661
	14.677356	49.681120	91.096422	38.244911	179.022453
	15.243803	48.247541	90.148401	35.536174	173.932116
	14.209421	47.928968	88.410363	36.970211	173.309542
	15.120662	48.725401	93.308471	35.217499	177.251371
	14.603472	47.928968	88.410363	34.420811	170.760142
	15.563969	47.928968	89.516387	34.420811	171.866167
	14.997522	50.796125	90.780415	36.970211	178.546751
	15.219175	46.176817	86.514321	32.349424	165.040561
	14.504959	48.247541	92.676457	36.014186	176.938184
	15.317688	49.840406	91.728436	36.651536	178.220379
	14.628100	50.796125	92.992464	37.607561	181.396151
	15.563969	49.203260	90.780415	35.376836	175.360512
	14.997522	49.681120	90.306405	35.058161	175.045686
	15.440828	50.636839	93.150468	35.695511	179.482818
	14.800497	49.362547	90.622412	35.376836	175.361795
	15.071406	48.884687	91.096422	36.014186	175.995295
	15.194547	49.681120	91.412429	35.376836	176.470385
	14.997522	48.566114	89.042377	35.695511	173.304002
	15.022150	49.043974	92.360450	35.536174	176.940598
	14.554215	49.362547	90.780415	35.695511	175.838473
	15.120662	52.388990	92.044443	35.695511	180.128945
	14.726612	49.681120	91.570433	36.332861	177.584414
	15.022150	49.521833	89.358384	34.898823	173.779041
	14.529587	50.796125	95.836527	37.607561	184.240214
	15.243803	48.725401	90.780415	35.376836	174.882652
	14.677356	49.681120	91.886440	36.810874	178.378433
	15.514713	49.681120	91.254426	34.898823	175.834369
	14.899009	50.636839	88.884373	35.217499	174.738710
	15.514713	49.840406	92.360450	34.580149	176.781005
	14.923637	49.681120	91.254426	36.173524	177.109069
	15.194547	49.362547	90.780415	35.058161	175.201123
	15.120662	50.477552	92.992464	36.014186	179.484203
	15.588597	49.362547	90.780415	35.695511	175.838473
	15.194547	48.884687	89.674391	33.942799	172.501877
	15.219175	52.229704	90.306405	35.217499	177.753607
	15.022150	50.158980	91.886440	35.058161	177.103580
	15.317688	49.043974	90.938419	34.898823	174.881216
	15.071406	46.176817	87.936352	32.508761	166.621930
	14.825125	52.070417	94.256492	39.519611	185.846520
	15.071406	49.043974	92.992464	36.970211	179.006649
	14.652728	49.681120	91.254426	36.173524	177.109069
	15.169919	50.477552	91.096422	37.129549	178.703523
	14.751240	49.999693	91.570433	36.810874	178.380999
	15.268431	50.318266	89.674391	36.492199	176.484855
	14.603472	48.406828	91.570433	35.058161	175.035422
	15.440828	48.566114	91.254426	38.085574	177.906114
	14.874381	49.840406	92.202447	36.332861	178.375714
	15.219175	49.840406	91.728436	38.722924	180.291766
	15.046778	47.451109	89.832394	35.217499	172.501002
	15.219175	47.610396	90.780415	36.492199	174.883009
	15.145291	49.840406	90.306405	35.536174	175.682985
	15.293059	49.362547	90.780415	37.607561	177.750523
	14.899009	50.477552	92.676457	36.970211	180.124221
	15.416200	51.911131	92.360450	40.953649	185.225230
	15.120662	49.362547	92.676457	36.810874	178.849878
	15.243803	49.203260	92.044443	39.041599	180.289302
	15.243803	47.769682	89.990398	34.580149	172.340228
	15.194547	52.229704	91.096422	37.926236	181.252362
	15.219175	50.318266	90.306405	36.492199	177.116869
	14.701984	50.636839	94.572499	40.794311	186.003649
	14.800497	50.796125	91.570433	37.129549	179.496106
	14.381818	49.043974	91.570433	36.970211	177.584618
	15.022150	47.928968	91.886440	36.332861	176.148269
	14.628100	53.185423	94.098489	39.838286	187.122197
	14.923637	52.070417	93.782482	37.766899	183.619797
	14.406447	50.955412	90.938419	36.970211	178.864042
	15.022150	49.521833	91.728436	36.492199	177.742468
	14.578844	50.796125	92.834461	37.607561	181.238147
	15.169919	49.362547	90.622412	36.492199	176.477157
	14.332562	49.043974	92.360450	35.536174	176.940598
	15.687110	49.362547	91.886440	36.014186	177.263172
	14.480331	52.070417	90.938419	35.058161	178.066997
	14.948266	48.406828	90.780415	35.376836	174.564079
	14.480331	49.521833	91.096422	35.695511	176.313767
	14.997522	49.521833	90.464408	36.332861	176.319103
	14.677356	48.884687	91.412429	35.376836	175.673953
	15.071406	48.406828	91.570433	36.014186	175.991446
	14.726612	49.681120	91.886440	35.217499	176.785058
	15.243803	49.840406	89.832394	35.854849	175.527649
	14.899009	49.999693	92.992464	36.014186	179.006343
	14.923637	50.318266	90.938419	35.058161	176.314846
	14.849753	46.973249	89.042377	32.668099	168.683725
	15.440828	46.813963	90.306405	35.217499	172.337866
	14.726612	50.477552	91.728436	36.492199	178.698187
	14.997522	47.769682	90.780415	35.217499	173.767595
	14.701984	46.495390	89.358384	34.261474	170.115247
	15.096034	48.725401	91.096422	35.536174	175.357997
	14.800497	50.318266	91.728436	35.854849	177.901551
	15.096034	49.043974	89.832394	33.942799	172.819167
	14.701984	47.610396	89.832394	35.376836	172.819626
	14.874381	49.043974	91.886440	35.376836	176.307250
	14.504959	48.406828	92.676457	35.217499	176.300783
	14.825125	49.840406	90.622412	36.332861	176.795679
	14.775869	48.406828	91.096422	35.376836	174.880086
	14.726612	50.318266	89.990398	38.085574	178.394237
	14.751240	48.088255	92.992464	35.376836	176.457555
	14.480331	45.698957	90.306405	36.014186	172.019548
	14.504959	50.477552	92.360450	37.607561	180.445564
	14.603472	47.769682	90.148401	37.766899	175.684981
	14.800497	48.566114	89.674391	36.651536	174.892041
	14.431075	50.158980	93.150468	39.360274	182.669721
	14.751240	50.796125	91.412429	36.970211	179.178765
	14.283306	48.247541	89.990398	37.926236	176.164175
	14.972894	49.840406	92.676457	37.607561	180.124425
	14.209421	48.884687	90.148401	38.722924	177.756012
	14.529587	49.043974	93.308471	37.766899	180.119343
	14.110909	48.884687	90.622412	38.404249	177.911348
	14.948266	48.884687	90.780415	36.651536	176.316639
	14.086281	51.114699	90.464408	38.244911	179.824018
	14.972894	49.043974	89.042377	36.492199	174.578549
	14.332562	50.318266	93.150468	39.200936	182.669670
	14.849753	49.362547	90.780415	36.651536	176.794498
	14.504959	48.406828	90.464408	38.404249	177.275485
	14.775869	47.928968	90.938419	35.536174	174.403561
	14.357190	49.681120	91.412429	38.882261	179.975810
	15.243803	51.433271	94.256492	37.607561	183.297325
	14.529587	47.132536	87.778349	36.810874	171.721758
	15.096034	49.681120	91.254426	36.970211	177.905756
	14.997522	52.388990	94.256492	40.316299	186.961781
	15.046778	48.088255	90.464408	36.970211	175.522874
	14.726612	49.681120	92.992464	37.288886	179.962470
	15.145291	46.654677	88.884373	33.942799	169.481848
	14.726612	52.229704	92.518454	37.448224	182.196381
	14.825125	49.043974	91.096422	36.970211	177.110607
	14.726612	49.840406	90.938419	36.014186	176.793011
	14.948266	48.247541	89.042377	35.695511	172.985429
	14.874381	48.406828	92.360450	35.058161	175.825439
	14.972894	47.928968	90.464408	35.854849	174.248225
	14.578844	51.592558	93.308471	38.244911	183.145940
	14.726612	50.955412	91.728436	37.129549	179.813397
	14.849753	48.247541	88.726370	35.058161	172.032072
	14.874381	48.247541	90.938419	34.420811	173.606771
	14.825125	48.566114	90.148401	35.376836	174.091352
	14.751240	46.973249	90.622412	34.898823	172.494484
	14.701984	50.477552	92.518454	37.288886	180.284892
	14.800497	45.698957	87.462342	33.464786	166.626085
	14.775869	48.088255	93.940485	35.854849	177.883589
	14.652728	48.725401	90.148401	35.217499	174.091301
	14.652728	51.273985	92.676457	36.970211	180.920653
	14.529587	49.681120	91.254426	36.173524	177.109069
	14.825125	47.769682	89.042377	35.217499	172.029557
	14.480331	48.088255	91.412429	34.261474	173.762158
	14.628100	48.884687	91.412429	36.492199	176.789315
	14.061653	48.406828	91.254426	35.695511	175.356765
	14.874381	48.088255	90.148401	35.376836	173.613492
	14.110909	53.185423	91.886440	36.970211	182.042074
	14.677356	47.291822	92.360450	34.261474	173.913746
	14.234050	45.539671	87.304338	32.986774	165.830783
	14.677356	49.999693	91.886440	36.810874	178.697006
	14.209421	48.088255	90.938419	36.810874	175.837547
	15.071406	46.813963	88.884373	35.695511	171.393847
	14.480331	47.610396	91.412429	37.766899	176.789723
	15.096034	48.884687	89.674391	34.898823	173.457901
	14.529587	50.636839	92.202447	40.316299	183.155584
	15.071406	48.884687	90.622412	36.970211	176.477310
	14.603472	48.884687	90.148401	38.085574	177.118662
	15.169919	47.769682	90.148401	36.651536	174.569619
	14.504959	49.521833	92.676457	40.156961	182.355251
	14.800497	49.999693	92.044443	37.926236	179.970372
	14.874381	52.070417	91.570433	38.722924	182.363774
	14.997522	48.884687	90.148401	36.332861	175.365950
	14.701984	49.521833	91.728436	38.882261	180.132531
	15.096034	48.406828	91.412429	36.492199	176.311455
	14.677356	47.610396	90.148401	36.651536	174.410333
	15.096034	48.088255	90.622412	36.332861	175.043528
	14.751240	49.043974	90.622412	38.722924	178.389309
	15.096034	48.406828	88.094356	34.739486	171.240669
	14.775869	49.362547	92.676457	38.085574	180.124578
	14.849753	51.433271	92.518454	38.244911	182.196636
	14.800497	48.566114	91.254426	37.766899	177.587438
	14.701984	48.566114	91.254426	38.085574	177.906114
	14.800497	48.088255	91.096422	36.332861	175.517538
	14.775869	48.884687	92.676457	37.607561	179.168706
	14.529587	48.406828	92.360450	39.360274	180.127552
	14.652728	47.769682	90.306405	36.173524	174.249610
	14.874381	49.840406	89.990398	36.810874	176.641678
	14.357190	47.451109	88.094356	35.217499	170.762963
	14.972894	48.247541	93.624478	36.651536	178.523556
	14.135537	47.451109	89.516387	35.536174	172.503670
	14.972894	48.247541	91.254426	36.014186	175.516153
	14.283306	49.362547	91.096422	36.970211	177.429180
	14.677356	48.247541	88.726370	35.376836	172.350747
	14.332562	50.477552	91.254426	35.695511	177.427489
	14.874381	49.521833	91.412429	36.651536	177.585799
	14.480331	46.495390	89.674391	35.536174	171.705954
	15.366944	46.973249	89.516387	34.420811	170.910448
	14.455703	48.088255	90.148401	35.536174	173.772830
	14.972894	46.973249	91.412429	36.014186	174.399864
	14.578844	49.203260	89.990398	36.173524	175.367182
	15.046778	49.681120	90.306405	36.332861	176.320386
	14.701984	49.043974	91.254426	35.376836	175.675236
	14.825125	46.813963	88.726370	35.376836	170.917169
	14.554215	48.725401	91.728436	36.173524	176.627361
	14.899009	48.725401	90.938419	37.129549	176.793368
	14.849753	49.362547	91.570433	36.332861	177.265841
	14.775869	49.362547	91.254426	36.970211	177.587184
	14.726612	50.796125	89.358384	35.695511	175.850020
	14.726612	51.114699	92.834461	39.041599	182.990758
	14.701984	49.521833	89.990398	36.173524	175.685755
	14.701984	49.681120	91.728436	37.766899	179.176455
	14.775869	48.406828	91.412429	36.332861	176.152118
	14.455703	48.725401	89.832394	36.970211	175.528006
	14.800497	49.681120	93.624478	37.448224	180.753822
	14.431075	49.043974	90.464408	36.332861	175.841243
	14.628100	48.725401	91.412429	37.129549	177.267379
	14.234050	50.955412	90.938419	36.810874	178.704704
	14.800497	47.291822	88.726370	36.173524	172.191716
	14.283306	47.610396	89.516387	37.288886	174.415669
	14.849753	49.362547	91.254426	40.156961	180.773933
	14.258678	49.840406	92.202447	38.404249	180.447102
	14.997522	49.521833	91.412429	39.360274	180.294536
	14.431075	50.955412	92.676457	39.519611	183.151480
	14.726612	49.362547	89.200380	37.926236	176.489163
	14.184793	47.928968	91.570433	36.332861	175.832262
	14.923637	47.769682	90.306405	38.404249	176.480335
	14.504959	46.017530	89.674391	35.376836	171.068757
	14.972894	46.336103	88.568366	35.536174	170.440643
	14.283306	49.681120	89.832394	36.810874	176.324388
	14.997522	47.291822	92.834461	36.492199	176.618482
	14.455703	49.203260	89.674391	36.810874	175.688525
	14.775869	48.406828	90.306405	36.173524	174.886756
	14.406447	47.769682	91.096422	37.766899	176.633003
	14.972894	47.291822	88.094356	36.332861	171.719039
	14.899009	48.566114	92.676457	37.288886	178.531457
	15.046778	48.406828	91.570433	38.244911	178.222172
	14.701984	50.477552	92.202447	38.244911	180.924910
	15.194547	50.477552	91.570433	37.448224	179.496209
	14.701984	49.203260	90.148401	37.448224	176.799885
	14.800497	48.406828	94.256492	36.810874	179.474194
	14.504959	50.158980	91.728436	38.563586	180.451002
	14.578844	47.451109	90.464408	36.810874	174.726391
	14.381818	49.681120	92.202447	38.882261	180.765828
	14.701984	48.884687	89.358384	36.651536	174.894607
	14.677356	50.318266	92.676457	37.288886	180.283609
	14.529587	48.725401	90.938419	36.810874	176.474693
	14.406447	49.521833	90.780415	36.810874	177.113122
	14.332562	47.769682	90.622412	35.376836	173.768930
	14.455703	47.132536	88.884373	36.173524	172.190433
	14.332562	48.247541	92.992464	36.173524	177.413529
	14.504959	48.247541	89.674391	36.492199	174.414130
	14.628100	50.318266	90.938419	36.173524	177.430208
	14.652728	48.725401	91.096422	36.332861	176.154684
	13.963140	48.406828	90.148401	36.492199	175.047427
	14.874381	46.813963	90.148401	33.464786	170.427150
	14.135537	48.884687	92.834461	38.244911	179.964059
	14.455703	47.610396	90.464408	35.854849	173.929652
	14.160165	48.884687	91.096422	37.288886	177.269995
	14.775869	50.796125	91.096422	36.173524	178.066071
	14.135537	48.247541	89.516387	36.651536	174.415465
	14.652728	47.769682	91.728436	35.376836	174.874954
	13.815371	50.318266	92.676457	39.360274	182.354996
	14.825125	46.973249	90.464408	37.448224	174.885881
	14.283306	48.406828	92.044443	38.244911	178.696182
	14.972894	47.610396	88.252359	37.607561	173.470315
	14.381818	49.043974	91.570433	36.651536	177.265942
	14.800497	47.610396	90.148401	37.129549	174.888345
	14.529587	51.911131	92.992464	39.360274	184.263869
	14.751240	48.247541	90.464408	37.926236	176.638186
	14.578844	47.132536	89.516387	36.810874	173.459797
	14.874381	49.681120	93.466475	39.678949	182.826543
	14.554215	48.247541	90.938419	37.129549	176.315509
	14.874381	45.698957	90.464408	38.722924	174.886289
	14.504959	48.566114	90.780415	37.288886	176.635416
	14.899009	49.999693	90.938419	38.404249	179.342360
	14.677356	49.043974	92.202447	37.607561	178.853982
	14.406447	48.088255	91.096422	39.997624	179.182300
	14.455703	48.406828	91.254426	37.448224	177.109477
	14.283306	48.884687	91.728436	40.634974	181.248097
	14.628100	48.725401	89.990398	37.766899	176.482697
	13.864628	48.566114	93.624478	38.404249	180.594841
	14.431075	50.636839	89.200380	36.492199	176.329418
	13.839999	50.318266	92.360450	40.634974	183.313690
	14.603472	47.769682	91.570433	37.607561	176.947676
	14.061653	49.043974	89.832394	38.085574	176.961942
	14.701984	47.291822	91.886440	36.970211	176.148473
	14.258678	45.858244	89.990398	36.651536	172.500178
	14.972894	48.088255	89.832394	36.970211	174.890860
	14.504959	48.406828	89.200380	34.898823	172.506032
	14.997522	47.291822	88.884373	36.332861	172.509057
	14.578844	46.973249	88.726370	35.695511	171.395130
	14.972894	48.088255	90.464408	36.970211	175.522874
	14.578844	46.973249	90.622412	36.173524	173.769185
	14.775869	47.769682	91.412429	37.288886	176.470997
	14.554215	48.406828	90.148401	36.492199	175.047427
	14.775869	48.884687	89.674391	35.536174	174.095252
	14.603472	48.247541	90.780415	35.695511	174.723468
	13.938512	48.088255	89.674391	36.810874	174.573519
	14.504959	47.928968	90.148401	36.173524	174.250893
	14.357190	47.451109	89.832394	37.129549	174.413051
	14.578844	47.928968	89.674391	35.695511	173.298870
	14.110909	47.451109	89.358384	37.129549	173.939041
	14.726612	47.928968	90.148401	36.014186	174.091555
	13.987768	48.566114	91.570433	37.766899	177.903446
	14.874381	50.477552	89.990398	36.332861	176.800811
	14.037025	47.291822	90.306405	35.854849	173.453076
	15.071406	45.061811	88.884373	34.739486	168.685670
	14.529587	46.336103	88.726370	34.739486	169.801959
	14.997522	46.336103	89.516387	34.898823	170.751314
	14.357190	46.973249	90.780415	37.448224	175.201888
	14.899009	48.884687	89.516387	37.129549	175.530623
	14.381818	50.636839	94.098489	36.332861	181.068188
	14.874381	47.928968	91.886440	36.492199	176.307606
	14.578844	48.725401	91.570433	38.085574	178.381407
	14.652728	48.088255	91.254426	37.766899	177.109579
	14.283306	47.928968	89.358384	37.607561	174.894913
	14.800497	48.884687	92.518454	37.926236	179.329377
	14.578844	48.566114	91.096422	38.882261	178.544797
	14.751240	50.796125	91.096422	37.766899	179.659446
	14.800497	48.406828	91.096422	39.200936	178.704186
	14.603472	48.247541	90.938419	38.722924	177.908884
	14.480331	48.406828	92.044443	39.997624	180.448894
	14.480331	48.406828	90.306405	38.404249	177.117481
	14.701984	47.451109	90.938419	39.519611	177.909139
	14.357190	48.884687	90.938419	38.085574	177.908680
	14.677356	50.158980	89.516387	40.156961	179.832327
	14.209421	48.884687	92.518454	37.926236	179.329377
	14.578844	47.132536	89.516387	38.882261	175.531184
	14.160165	48.247541	90.148401	37.607561	176.003503
	14.775869	47.132536	90.780415	38.722924	176.635874
	13.864628	46.654677	88.726370	36.810874	172.191920
	14.726612	47.769682	92.360450	39.200936	179.331068
	14.037025	48.406828	89.042377	36.492199	173.941403
	14.726612	47.610396	90.306405	39.200936	177.117736
	14.135537	48.884687	90.780415	38.244911	177.910013
	14.775869	48.247541	88.410363	39.519611	176.177515
	14.184793	44.424665	89.042377	35.695511	169.162553
	14.775869	47.610396	89.832394	38.085574	175.528363
	14.578844	49.043974	91.886440	38.404249	179.334662
	15.046778	46.813963	88.726370	36.651536	172.191869
	14.603472	47.132536	89.516387	36.810874	173.459797
	14.874381	48.247541	89.674391	37.129549	175.051480
	14.504959	47.769682	91.254426	36.810874	175.834981
	14.800497	47.610396	90.780415	36.970211	175.361022
	14.406447	47.610396	90.938419	37.766899	176.315713
	14.726612	48.088255	90.464408	36.651536	175.204199
	14.332562	49.840406	89.516387	37.448224	176.805017
	14.431075	48.088255	91.728436	36.332861	176.149552
	14.283306	49.043974	90.306405	36.970211	176.320590
	14.110909	48.406828	91.096422	36.651536	176.154786
	14.381818	49.840406	92.992464	39.678949	182.511819
	14.381818	46.813963	89.358384	36.810874	172.983220
	14.431075	48.247541	94.098489	37.129549	179.475578
	14.160165	49.840406	90.938419	37.448224	178.227049
	14.578844	48.406828	90.938419	37.448224	176.793470
	13.987768	50.796125	91.412429	37.926236	180.134791
	14.578844	48.088255	88.884373	36.492199	173.464826
	13.987768	46.973249	92.360450	37.448224	176.781923
	14.628100	48.406828	90.780415	37.448224	176.635467
	13.889256	46.973249	90.464408	36.810874	174.248531
	14.701984	45.380384	90.464408	36.492199	172.336991
	14.332562	47.928968	89.200380	36.651536	173.780885
	14.874381	48.247541	92.044443	35.376836	175.668821
	14.480331	48.566114	90.622412	37.448224	176.636750
	14.825125	47.610396	90.306405	36.014186	173.930986
	14.504959	47.291822	89.516387	35.536174	172.344383
	15.071406	45.221098	87.778349	35.536174	168.535620
	14.578844	47.610396	92.202447	37.288886	177.101728
	14.701984	46.973249	89.358384	35.376836	171.708469
	14.578844	49.043974	89.042377	35.536174	173.622524
	14.775869	46.973249	89.674391	37.288886	173.936526
	14.603472	47.928968	90.622412	37.766899	176.318278
	14.677356	49.681120	93.150468	40.953649	183.785236
	14.307934	47.610396	90.306405	38.085574	176.002374
	14.603472	47.132536	91.254426	42.228349	180.615310
	14.504959	46.495390	89.358384	36.014186	171.867960
	14.061653	48.406828	89.358384	38.722924	176.488135
	14.529587	48.884687	92.834461	38.722924	180.442072
	14.135537	48.406828	91.570433	39.519611	179.496871
	14.480331	48.088255	90.464408	37.926236	176.478899
	13.913884	46.813963	90.464408	39.360274	176.638644
	14.751240	47.451109	90.622412	37.607561	175.681082
	13.987768	48.566114	89.516387	39.041599	177.124100
	14.849753	50.955412	93.466475	38.085574	182.507460
	14.234050	47.769682	90.148401	39.519611	177.437694
	14.800497	48.566114	91.254426	37.607561	177.428101
	14.480331	49.681120	91.728436	39.519611	180.929167
	14.948266	46.973249	90.780415	37.766899	175.520563
	14.578844	49.681120	94.098489	41.431661	185.211270
	14.677356	49.043974	90.306405	37.448224	176.798602
	14.603472	49.840406	92.044443	39.997624	181.882473
	14.628100	47.451109	89.358384	36.970211	173.779704
	14.554215	50.955412	90.148401	39.360274	180.464087
	14.455703	48.566114	91.254426	38.085574	177.906114
	14.504959	47.291822	90.938419	38.244911	176.475152
	14.037025	49.681120	92.518454	39.519611	181.719184
	14.652728	48.725401	91.412429	40.316299	180.454129
	13.987768	45.858244	90.780415	37.766899	174.405558
	14.800497	49.840406	93.150468	39.041599	182.032472
	13.864628	49.681120	90.780415	38.404249	178.865784
	14.751240	49.681120	92.518454	38.882261	181.081834
	14.061653	47.610396	90.938419	38.722924	177.271738
	14.849753	48.884687	90.780415	37.607561	177.272663
	14.037025	48.725401	92.834461	38.244911	179.804773
	14.628100	47.610396	88.726370	36.332861	172.669626
	14.135537	46.654677	89.042377	35.217499	170.914552
	15.243803	48.406828	89.200380	34.898823	172.506032
	14.431075	47.451109	89.042377	36.651536	173.145021
	14.923637	44.583952	89.516387	35.058161	169.158500
	14.578844	48.566114	90.464408	36.970211	176.000734
	14.455703	47.132536	90.148401	37.448224	174.729161
	14.455703	46.813963	91.412429	37.129549	175.355941
	14.307934	47.928968	90.306405	37.607561	175.842934
	14.504959	49.840406	90.622412	36.810874	177.273692
	14.209421	48.884687	89.990398	38.244911	177.119996
	14.677356	49.203260	92.202447	38.244911	179.650618
	13.987768	47.928968	90.938419	37.288886	176.156273
	14.578844	46.973249	89.674391	36.492199	173.139838
	14.061653	47.928968	92.044443	38.244911	178.218322
	14.504959	47.610396	89.832394	36.651536	174.094326
	14.012396	49.043974	89.674391	36.970211	175.688576
	14.726612	47.451109	89.358384	36.332861	173.142354
	14.061653	47.928968	88.884373	36.970211	173.783552
	14.529587	47.769682	90.464408	37.129549	175.363639
	14.209421	47.610396	89.358384	38.085574	175.054353
	15.022150	47.451109	90.148401	36.651536	174.251046
	14.234050	46.813963	90.464408	37.288886	174.567257
	14.874381	47.451109	88.884373	38.563586	174.899068
	14.234050	48.725401	91.886440	39.041599	179.653439
	14.800497	49.203260	90.938419	39.200936	179.342615
	14.751240	46.176817	88.884373	36.014186	171.075376
	14.775869	45.698957	89.832394	39.519611	175.050962
	14.529587	47.610396	90.148401	37.766899	175.525695
	14.800497	46.813963	87.936352	39.519611	174.269926
	14.332562	48.566114	93.466475	37.766899	179.799487
	14.652728	47.132536	89.042377	38.404249	174.579161
	14.455703	49.362547	90.622412	38.563586	178.548544
	14.209421	47.610396	90.148401	39.360274	177.119070
	14.504959	48.406828	89.674391	39.360274	177.441492
	14.037025	48.725401	92.992464	39.678949	181.396814
	14.529587	49.043974	91.096422	39.200936	179.341332
	13.815371	49.043974	90.464408	38.563586	178.071968
	14.628100	48.406828	91.254426	38.563586	178.224840
	14.012396	48.406828	88.884373	36.810874	174.102075
	14.578844	48.247541	92.676457	38.404249	179.328247
	13.963140	47.291822	90.148401	38.244911	175.685135
	14.529587	47.610396	90.306405	38.085574	176.002374
	14.037025	47.132536	90.464408	37.607561	175.204505
	14.677356	45.061811	87.620345	36.970211	169.652367
	14.234050	47.769682	91.728436	37.766899	177.265017
	14.775869	48.566114	89.042377	37.448224	175.056715
